#   1 NUMBER                 Running object number                                     
#   2 FLUX_ISO               Isophotal flux                                             [count]
#   3 FLUXERR_ISO            RMS error for isophotal flux                               [count]
#   4 BACKGROUND             Background at centroid position                            [count]
#   5 THRESHOLD              Detection threshold above background                       [count]
#   6 X_IMAGE                Object position along x                                    [pixel]
#   7 Y_IMAGE                Object position along y                                    [pixel]
#   8 CXX_IMAGE              Cxx object ellipse parameter                               [pixel**(-2)]
#   9 CYY_IMAGE              Cyy object ellipse parameter                               [pixel**(-2)]
#  10 CXY_IMAGE              Cxy object ellipse parameter                               [pixel**(-2)]
#  11 A_IMAGE                Profile RMS along major axis                               [pixel]
#  12 B_IMAGE                Profile RMS along minor axis                               [pixel]
#  13 THETA_IMAGE            Position angle (CCW/x)                                     [deg]
#  14 THETA_WORLD            Position angle (CCW/world-x)                               [deg]
#  15 THETA_SKY              Position angle (east of north) (native)                    [deg]
#  16 THETA_J2000            Position angle (east of north) (J2000)                     [deg]
#  17 THETA_B1950            Position angle (east of north) (B1950)                     [deg]
         1     436.8289     113.6865     507.8404      11.2139    388.6732     43.8718   6.1360586e-01   7.7939689e-01   6.0769159e-01     1.619     0.994 -37.37 -37.37  +0.00  +0.00  +0.00
         2     315.9666     88.30551      508.427      11.2139    441.7915     17.2573   6.2222457e-01   1.3656112e+00  -1.0540280e+00     1.693     0.781  27.40  27.40  +0.00  +0.00  +0.00
         3     483.3688     118.1857     508.4773      11.2139    445.9887     20.2859   4.8121148e-01   5.8491766e-01  -4.7418755e-01     1.856     1.135  38.83  38.83  +0.00  +0.00  +0.00
         4     271.4529     93.63902     507.4561      11.2139     94.3289     16.9874   1.2709886e+00   1.9437925e+00   8.1380570e-01     0.963     0.684 -25.21 -25.21  +0.00  +0.00  +0.00
         5     387.4313      104.274     508.4569      11.2139     15.9731     13.5207   7.1550381e-01   1.3683941e+00   8.2823712e-01     1.394     0.798 -25.88 -25.88  +0.00  +0.00  +0.00
         6     150.5479     51.33681      508.901      11.2139    466.1248     12.2380   4.8313227e+00   4.8710957e+00   7.5997310e+00     0.975     0.340 -44.85 -44.85  +0.00  +0.00  +0.00
         7     173.9235     64.52277     508.1478      11.2139    349.1769     11.8906   1.7565349e+00   2.7332044e+00   2.6612668e+00     1.099     0.523 -34.92 -34.92  +0.00  +0.00  +0.00
         8     92.54733     59.95898     507.4307      11.2139    157.1825     11.3808   1.9719383e+00   3.6039307e+00   4.3559704e+00     1.471     0.442 -34.73 -34.73  +0.00  +0.00  +0.00
         9     98.46829     55.64899     508.0799      11.2139    357.9785     11.1218   2.2319672e+00   3.3838880e+00   3.1400568e+00     0.938     0.472 -34.93 -34.93  +0.00  +0.00  +0.00
        10      243.011     72.28049     507.1992      11.2139     90.4876     10.1238   1.0068442e+00   1.2928003e+00   5.5512387e-02     0.998     0.879  -5.49  -5.49  +0.00  +0.00  +0.00
        11     359.5997     96.65292     507.0253      11.2139     55.9170      8.4199   1.7796855e+00   4.6189430e-01   8.1752545e-01     1.702     0.726 -74.09 -74.09  +0.00  +0.00  +0.00
        12     264.6083     75.79415     506.9123      11.2139    195.4339      7.3316   1.4926940e+00   1.2044750e+00   1.2176086e+00     1.176     0.712 -51.66 -51.66  +0.00  +0.00  +0.00
        13     83.51788     59.89872     508.0666      11.2139    407.7979      6.7799   3.2635765e+00   1.3717643e+00   2.2092977e+00     1.076     0.515 -65.29 -65.29  +0.00  +0.00  +0.00
        14     104.6298     45.77912     507.5297      11.2139    263.9716      7.7524   1.9776272e+00   5.3710642e+00   1.4912105e-01     0.711     0.431  -1.26  -1.26  +0.00  +0.00  +0.00
        15      209.283      56.4399     507.3607      11.2139    234.5377      7.3571   1.1388422e+00   4.3586345e+00   1.0904848e-01     0.937     0.479  -0.97  -0.97  +0.00  +0.00  +0.00
        16     566.7759     116.3253     507.0123      11.2139     83.4110      6.7812   2.0978171e-01   1.0743427e+00  -2.0210107e-01     2.247     0.960   6.58   6.58  +0.00  +0.00  +0.00
        17     315.1126     91.10535     506.8871      11.2139     89.0012      1.2950   8.9345026e-01   1.4223483e+00   7.0004505e-01     1.179     0.791 -26.46 -26.46  +0.00  +0.00  +0.00
        18     384.4434     91.40925     508.0888      11.2139    362.2114      3.6817   5.3025007e-01   7.6171815e-01  -2.9045429e-02     1.374     1.145   3.58   3.58  +0.00  +0.00  +0.00
        19     174.1942     75.31548     508.0411      11.2139    367.7391      1.8969   7.6059842e-01   2.0570221e+00   7.9959631e-01     1.243     0.679 -15.83 -15.83  +0.00  +0.00  +0.00
        20      80.6813     45.56939     508.0166      11.2139    380.5145      4.4376   4.0035386e+00   4.0634022e+00   5.2629743e-02     0.500     0.495 -20.66 -20.66  +0.00  +0.00  +0.00
        21     66.21597     45.44224     507.9931      11.2139    383.7617      9.4713   1.6590862e+00   4.4484134e+00  -1.6993874e+00     0.839     0.462  15.68  15.68  +0.00  +0.00  +0.00
        22     105.5062     55.69956     507.4947      11.2139    270.9843      2.1842   2.3658600e+00   3.3086531e+00   3.3587828e+00     0.957     0.467 -37.16 -37.16  +0.00  +0.00  +0.00
        23     55.25858     45.34568     508.1443      11.2139    225.0000    493.5337   1.2000005e+01   7.2199529e-01  -0.0000000e+00     1.177     0.289  90.00  90.00  +0.00  +0.00  +0.00
        24      56.2644     50.59685     506.5937      11.2139    118.3815    511.1759   4.6868834e+00   2.1343353e+00  -1.9579779e+00     0.745     0.446  71.25  71.25  +0.00  +0.00  +0.00
        25     242.8569     75.67927     506.5937      11.2139     47.0863    510.7562   1.2285167e+00   1.0758840e+00   1.1925845e+00     1.347     0.755 -48.65 -48.65  +0.00  +0.00  +0.00
        26     261.7137     75.77887     506.2814      11.2139    343.5804    492.3910   2.0150726e+00   2.9239604e+00   4.3911781e+00     2.097     0.461 -39.15 -39.15  +0.00  +0.00  +0.00
        27     543.3838     118.3886     506.6372      11.2139    319.5516    488.7322   3.6613348e-01   1.1073964e+00   6.5956116e-01     2.038     0.901 -20.83 -20.83  +0.00  +0.00  +0.00
        28     331.2693     101.6127     506.7683      11.2139    143.5883    493.5068   6.9075865e-01   5.6231195e-01  -7.7612974e-02     1.347     1.194  74.43  74.43  +0.00  +0.00  +0.00
        29      81.4834     45.57643     506.8348      11.2139    398.9584    490.2340   1.9079074e+00   5.5849385e+00  -2.0738302e-01     0.725     0.423   1.61   1.61  +0.00  +0.00  +0.00
        30     562.3702     102.5184     506.8197      11.2139     26.2937    488.9254   8.2476735e-01   9.4441497e-01  -2.9937795e-01     1.176     0.978  34.11  34.11  +0.00  +0.00  +0.00
        31     104.3389     45.77658     507.9267      11.2139    185.4701    487.5797   4.0165339e+00   4.1063867e+00  -1.8835399e-01     0.503     0.490  32.25  32.25  +0.00  +0.00  +0.00
        32     70.87271     45.48321     506.1431      11.2139    444.5151    486.5157   4.0037165e+00   4.0040030e+00   3.3970650e-02     0.501     0.499 -44.76 -44.76  +0.00  +0.00  +0.00
        33     551.4668     114.0891     506.8978      11.2139    382.3902    484.5362   7.6637751e-01   8.0110627e-01   4.4189402e-01     1.334     0.997 -42.75 -42.75  +0.00  +0.00  +0.00
        34     101.4785     60.01854       506.83      11.2139    124.3487    487.6601   1.2434450e+00   1.5528562e+00  -1.0961266e+00     1.099     0.713  37.12  37.12  +0.00  +0.00  +0.00
        35      604.634     116.4554     507.2555      11.2139    158.1909    487.3940   2.6967970e-01   1.9696954e+00   4.3946502e-01     2.034     0.708  -7.25  -7.25  +0.00  +0.00  +0.00
        36     68.68893       45.464     507.0287      11.2139    311.2834    483.9716   5.2669706e+00   7.2088156e+00   1.0373531e+01     1.020     0.295 -39.70 -39.70  +0.00  +0.00  +0.00
        37     505.6793     124.4778     508.0852      11.2139    236.8050    481.4719   7.0809639e-01   4.5830080e-01  -4.1661519e-01     1.714     1.100  60.47  60.47  +0.00  +0.00  +0.00
        38     241.1649     78.92404     507.2491      11.2139    279.8001    481.6890   1.2092106e+00   5.8601332e+00   2.4023962e+00     1.044     0.403 -13.66 -13.66  +0.00  +0.00  +0.00
        39      92.2251     59.95684     506.9733      11.2139    368.8444    479.1366   2.6834326e+00   1.9278384e+00   3.0784693e+00     1.178     0.507 -51.90 -51.90  +0.00  +0.00  +0.00
        40     224.4028     72.17744     506.5877      11.2139    413.8787    478.2258   1.5722297e+00   1.1566440e+00   6.5327084e-01     1.012     0.756 -61.23 -61.23  +0.00  +0.00  +0.00
        41     193.7942     56.33002       506.65      11.2139    349.6559    478.6704   2.4901619e+00   2.7135286e+00   2.8177874e+00     0.917     0.499 -42.73 -42.73  +0.00  +0.00  +0.00
        42     190.3313     84.81951     507.4938      11.2139    267.6923    478.4095   1.1675400e+00   1.7354831e+00   1.5670719e+00     1.272     0.662 -35.04 -35.04  +0.00  +0.00  +0.00
        43     220.1828     64.80891     507.8723      11.2139    249.9835    478.7919   2.3388419e+00   9.8875612e-01  -5.0247157e-01     1.029     0.648  79.79  79.79  +0.00  +0.00  +0.00
        44     100.0097     45.73874     506.9224      11.2139     10.8002    479.2029   1.8576114e+00   8.0543737e+00   3.7301345e+00     0.864     0.342 -15.52 -15.52  +0.00  +0.00  +0.00
        45      256.946      75.7537     507.0374      11.2139    495.0481    476.9844   8.5885245e-01   1.8574436e+00   1.4582092e-01     1.082     0.733  -4.15  -4.15  +0.00  +0.00  +0.00
        46     137.0051     64.29349     508.0625      11.2139    208.9405    475.9061   8.6466223e-01   1.2718848e+00  -4.5272836e-01     1.144     0.854  24.01  24.01  +0.00  +0.00  +0.00
        47     265.8754     79.04918     507.9194      11.2139    187.2087    475.9763   1.9085400e+00   2.0945041e+00   2.1294045e-01     0.733     0.683 -24.43 -24.43  +0.00  +0.00  +0.00
        48     714.4564     114.6591     506.9635      11.2139      4.0536    475.0310   5.1104444e-01   1.1040391e+00  -1.0044320e+00     2.111     0.848  29.72  29.72  +0.00  +0.00  +0.00
        49     86.62811     45.62156      506.973      11.2139    148.4582    482.5155   4.0418377e+00   4.0174675e+00   4.6910453e-01     0.513     0.484 -46.49 -46.49  +0.00  +0.00  +0.00
        50     103.7399     45.77135     507.0489      11.2139    386.7495    473.2584   7.3405156e+00   2.0568426e+00   4.0703197e+00     0.856     0.353 -71.20 -71.20  +0.00  +0.00  +0.00
        51     161.9114     64.44825     507.1468      11.2139    150.7007    473.1213   1.8142530e+00   2.7508016e+00   2.8308368e+00     1.124     0.515 -35.85 -35.85  +0.00  +0.00  +0.00
        52     148.8864     60.33366     506.9943      11.2139    142.1206    472.1534   2.8071589e+00   7.8194016e-01  -1.0318922e+00     1.233     0.584  76.50  76.50  +0.00  +0.00  +0.00
        53     118.8173     67.98608     507.0046      11.2139    131.0070    471.3251   2.2001340e+00   5.8462054e-01   1.4096744e-03     1.308     0.674 -89.97 -89.97  +0.00  +0.00  +0.00
        54     181.4671      71.9391     506.9812      11.2139    403.5554    471.8677   7.7910507e-01   2.2441821e+00  -5.3765565e-01     1.169     0.661  10.08  10.08  +0.00  +0.00  +0.00
        55     172.1914     51.50518     507.8695      11.2139    179.7783    472.4290   2.0641863e+00   4.7964878e+00   2.4282522e+00     0.790     0.436 -20.81 -20.81  +0.00  +0.00  +0.00
        56     106.5361     64.10365     506.9943      11.2139    103.6170    471.9770   1.3300347e+00   3.3804290e+00   2.7425032e+00     1.247     0.496 -26.61 -26.61  +0.00  +0.00  +0.00
        57      116.473     45.88248      506.393      11.2139    440.4750    471.5117   4.0160127e+00   4.0081882e+00   3.1052899e-01     0.509     0.490 -45.72 -45.72  +0.00  +0.00  +0.00
        58     247.1092     68.73676     507.0148      11.2139     37.3226    469.6558   1.6559302e+00   1.0482979e+00   1.3288524e+00     1.268     0.693 -57.29 -57.29  +0.00  +0.00  +0.00
        59     254.9564      78.9939     507.0148      11.2139     17.6962    469.7191   1.1381558e+00   2.8471656e+00   1.1831073e+00     1.024     0.574 -17.35 -17.35  +0.00  +0.00  +0.00
        60     503.4445     107.0929     506.9753      11.2139    460.2818    468.5416   6.7073089e-01   1.2617836e+00  -2.8332573e-01     1.251     0.879  12.81  12.81  +0.00  +0.00  +0.00
        61     57.82281     45.36829     507.0992      11.2139    373.2101    469.2219   2.0379395e+00   7.8926768e+00  -4.1376872e+00     0.851     0.342  17.62  17.62  +0.00  +0.00  +0.00
        62     61.15436     45.39766     507.0251      11.2139     32.2502    468.9809   5.3325086e+00   2.3026934e+00  -1.1742301e-01     0.659     0.433  88.89  88.89  +0.00  +0.00  +0.00
        63     368.7281     108.9225     507.0559      11.2139     80.6084    465.5810   6.0596824e-01   5.4672265e-01   6.1393541e-01     1.932     1.063 -47.76 -47.76  +0.00  +0.00  +0.00
        64     80.85001     45.57087     507.0769      11.2139    482.9857    467.2508   7.5121222e+00   5.5384960e+00   1.1000173e+01     1.033     0.287 -50.09 -50.09  +0.00  +0.00  +0.00
        65     148.0511     64.36217     507.0928      11.2139    476.7553    467.2333   1.1117165e+00   2.2506185e+00  -2.4370444e-01     0.954     0.665   6.04   6.04  +0.00  +0.00  +0.00
        66     85.42664     45.61102     506.8335      11.2139    347.4755    467.4818   4.0206590e+00   4.0163250e+00  -4.2144027e-01     0.512     0.486  45.29  45.29  +0.00  +0.00  +0.00
        67     127.6035     71.63898      508.017      11.2139    224.4577    465.8523   6.0900199e-01   2.3021255e+00   3.6899823e-01     1.303     0.656  -6.15  -6.15  +0.00  +0.00  +0.00
        68     64.02942     45.42299     507.0559      11.2139    124.5056    466.4673   4.0077891e+00   4.0245428e+00  -3.4245938e-01     0.510     0.489  43.60  43.60  +0.00  +0.00  +0.00
        69     378.4246     88.58797     507.0662      11.2139    119.3309    463.1338   1.3545488e+00   3.9838645e-01   8.3430338e-01     2.033     0.814 -69.45 -69.45  +0.00  +0.00  +0.00
        70     106.3553      45.7942      506.704      11.2139    421.5026    463.0066   7.6494288e+00   4.0098562e+00   7.6506853e+00     0.792     0.315 -57.72 -57.72  +0.00  +0.00  +0.00
        71     287.0947     82.27244     506.8437      11.2139    416.9812    460.3674   1.9534997e+00   1.6250417e+00   1.5541193e+00     1.002     0.622 -50.97 -50.97  +0.00  +0.00  +0.00
        72     82.09027     50.80061     507.2092      11.2139    393.4917    458.4860   4.6039853e+00   1.8664098e+00  -2.1639941e+00     0.819     0.448  70.84  70.84  +0.00  +0.00  +0.00
        73     252.5183     72.33308     507.0662      11.2139    130.7222    460.1340   1.2071899e+00   3.4043982e+00   2.9874237e+00     1.488     0.490 -26.83 -26.83  +0.00  +0.00  +0.00
        74     411.5399     91.52775     507.9084      11.2139    198.9461    458.4467   7.0241922e-01   2.0879681e+00   7.6887828e-01     1.288     0.676 -14.51 -14.51  +0.00  +0.00  +0.00
        75     521.5063     107.1603     507.0875      11.2139    146.3596    456.5496   3.2694143e-01   2.7814758e-01   1.0196809e-01     2.016     1.669 -57.79 -57.79  +0.00  +0.00  +0.00
        76     247.7556     78.95744     507.0392      11.2139     98.5988    458.6970   2.3293040e+00   2.4298613e+00   2.2292340e+00     0.890     0.535 -43.71 -43.71  +0.00  +0.00  +0.00
        77     197.4897     56.35626     506.8705      11.2139    339.4232    457.3998   3.7890050e+00   2.2022710e+00   4.0040221e+00     1.090     0.441 -55.81 -55.81  +0.00  +0.00  +0.00
        78     25.13144     45.07914     507.0464      11.2139    329.5191    456.9894   7.9617577e+00   4.0143714e+00  -7.9700923e+00     0.806     0.310  58.17  58.17  +0.00  +0.00  +0.00
        79     84.89551     45.60637     507.3056      11.2139    474.4929    455.0227   8.2726393e+00   4.0081191e+00   8.2757492e+00     0.820     0.304 -58.63 -58.63  +0.00  +0.00  +0.00
        80     105.5898     45.78751     507.2209      11.2139    367.4677    454.4651   4.0179596e+00   8.4476298e-01  -6.2495969e-02     1.088     0.499  89.44  89.44  +0.00  +0.00  +0.00
        81      206.713     72.07934     507.7241      11.2139    296.1111    453.8267   1.3970869e+00   7.2845763e-01   8.3980519e-01     1.379     0.791 -64.26 -64.26  +0.00  +0.00  +0.00
        82     308.3496     79.26381     507.7155      11.2139    171.8572    474.2273   1.3758217e+00   5.5364108e-01   1.1957773e+00     2.045     0.769 -62.26 -62.26  +0.00  +0.00  +0.00
        83     153.6531     68.19073     507.0238      11.2139    100.6171    454.2289   6.6317099e-01   3.4745183e+00   1.4842509e+00     1.444     0.523 -13.92 -13.92  +0.00  +0.00  +0.00
        84     159.5737     51.40709     506.9532      11.2139     64.4352    453.8068   4.4933381e+00   2.2491453e+00   1.9551673e+00     0.729     0.454 -69.47 -69.47  +0.00  +0.00  +0.00
        85     45.28506     50.50998     507.7439      11.2139    267.0586    453.0072   2.5318871e+00   5.1868491e+00  -5.0588078e+00     0.999     0.386  31.15  31.15  +0.00  +0.00  +0.00
        86     442.5354       94.367     507.6384      11.2139    174.2713    453.0332   6.0950947e-01   2.9772730e+00  -1.2485371e+00     1.482     0.565  13.90  13.90  +0.00  +0.00  +0.00
        87      239.299     72.25994     506.9327      11.2139     71.9061    452.3045   6.1696329e+00   8.0242453e+00   1.3147038e+01     1.477     0.270 -40.99 -40.99  +0.00  +0.00  +0.00
        88     325.9489     79.35258     507.7679      11.2139    257.8515    450.5686   1.7974200e+00   7.4723643e-01   6.4621758e-01     1.235     0.728 -74.20 -74.20  +0.00  +0.00  +0.00
        89     173.3944     60.49593     507.8557      11.2139    198.0323    452.2841   1.9462099e+00   2.1540256e+00  -1.2383019e-01     0.720     0.679  15.39  15.39  +0.00  +0.00  +0.00
        90     236.5451     78.90062     506.9607      11.2139    447.2675    450.4295   1.1257544e+00   4.2865639e+00   9.6199495e-01     0.974     0.479  -8.46  -8.46  +0.00  +0.00  +0.00
        91     123.1478     55.82611     507.1592      11.2139    357.1595    448.8400   9.5249405e+00   2.4924562e+00   8.6130419e+00     1.492     0.294 -64.62 -64.62  +0.00  +0.00  +0.00
        92     186.9222     60.58531     507.6797      11.2139    280.6640    449.5954   2.6405518e+00   6.2480764e+00   7.2201548e+00     1.564     0.343 -31.73 -31.73  +0.00  +0.00  +0.00
        93     138.6647     46.07555     506.9988      11.2139     97.9901    450.7577   1.9967027e+00   5.4473491e+00   5.2155592e-02     0.708     0.428  -0.43  -0.43  +0.00  +0.00  +0.00
        94     63.67026     45.41982     507.4159      11.2139    475.2126    448.9586   5.2831397e+00   7.5953474e+00  -1.0797363e+01     1.044     0.289  38.96  38.96  +0.00  +0.00  +0.00
        95     271.5344     75.83069     506.6438      11.2139    433.8127    448.9096   9.1916513e-01   2.1998341e+00   1.0127518e+00     1.160     0.649 -19.17 -19.17  +0.00  +0.00  +0.00
        96     482.5818     91.83769     506.8344      11.2139    440.2245    446.1811   2.0375128e+00   1.3489388e+00   2.5937448e+00     1.687     0.574 -52.43 -52.43  +0.00  +0.00  +0.00
        97     63.71457     45.42021     507.3029      11.2139    392.2355    447.4909   1.3105882e+01   1.9855880e+00   7.7443576e+00     1.140     0.264 -72.57 -72.57  +0.00  +0.00  +0.00
        98     76.56378     50.75708     507.8791      11.2139    204.4097    447.7706   4.6253271e+00   2.1201570e+00   2.0392601e+00     0.754     0.448 -70.43 -70.43  +0.00  +0.00  +0.00
        99     580.4106     109.6972     507.1544      11.2139    150.7297    440.1208   2.8574416e-01   1.3529356e+00   7.8264035e-02     1.875     0.859  -2.10  -2.10  +0.00  +0.00  +0.00
       100     100.5999     64.06659     507.0617      11.2139    451.3896    450.3393   2.1487281e+00   2.7676114e-01   3.5276914e-01     1.960     0.680 -84.66 -84.66  +0.00  +0.00  +0.00
       101      72.2168     50.72281     507.7434      11.2139    190.2118    447.3755   2.0998595e+00   4.7155490e+00  -1.9466176e+00     0.750     0.446  18.33  18.33  +0.00  +0.00  +0.00
       102      343.353     91.22927     506.9327      11.2139     52.1977    452.4794   1.3471088e+00   2.1135049e+00   2.7679014e+00     1.843     0.562 -37.26 -37.26  +0.00  +0.00  +0.00
       103     223.9721     93.43597     507.6906      11.2139    260.1950    445.3097   1.1439391e+00   1.6904036e+00   1.4542156e+00     1.250     0.675 -34.70 -34.70  +0.00  +0.00  +0.00
       104     363.2829     79.54055      507.124      11.2139    411.2664    443.8000   5.1425922e-01   3.1926112e+00   1.0082024e+00     1.538     0.552 -10.31 -10.31  +0.00  +0.00  +0.00
       105     48.21783      50.5332     507.5909      11.2139    303.2030    442.3628   6.4130645e+00   1.1197555e+00   1.0194632e+00     0.966     0.393 -84.55 -84.55  +0.00  +0.00  +0.00
       106     214.2735     68.54541     507.4744      11.2139    488.4297    444.6826   1.0239145e+00   2.3840406e+00   3.5467696e-01     0.999     0.645  -7.31  -7.31  +0.00  +0.00  +0.00
       107     172.1645     68.29923     506.9373      11.2139    440.5824    439.9593   9.7615981e-01   1.8163757e+00  -1.6075671e+00     1.430     0.659  31.20  31.20  +0.00  +0.00  +0.00
       108     357.6213     96.64474     506.9201      11.2139    423.3671    440.3602   6.5702415e-01   2.4121830e+00   1.7386032e+00     1.828     0.601 -22.36 -22.36  +0.00  +0.00  +0.00
       109     351.7969     88.46767     507.1633      11.2139    349.2841    440.7253   7.9927325e-01   3.4503567e+00   4.2734703e-01     1.131     0.537  -4.58  -4.58  +0.00  +0.00  +0.00
       110      50.1506      45.3006     506.9619      11.2139    100.3295    439.6588   7.0311098e+00   5.0758696e+00  -1.0281022e+01     1.104     0.298  50.38  50.38  +0.00  +0.00  +0.00
       111     85.73599     59.91353     506.9266      11.2139     98.1460    436.3684   2.5779974e+00   5.0793326e-01   4.6496069e-01     1.440     0.620 -83.67 -83.67  +0.00  +0.00  +0.00
       112     253.9779     88.02427     507.0662      11.2139    121.6238    435.3046   1.9293373e+00   3.3816093e-01  -5.9793848e-01     1.877     0.710  79.70  79.70  +0.00  +0.00  +0.00
       113     105.1733     45.78387      507.001      11.2139    106.2667    436.0061   5.0409837e+00   7.1234126e+00   1.0116506e+01     1.044     0.298 -39.18 -39.18  +0.00  +0.00  +0.00
       114      413.124      106.755     507.4991      11.2139    458.1989    434.1669   2.9708108e-01   1.0859393e+00   3.2118261e-01     1.940     0.946 -11.08 -11.08  +0.00  +0.00  +0.00
       115     197.5589     64.66912     507.1975      11.2139    343.9127    434.2212   2.7355726e+00   1.8798174e+00   2.8618014e+00     1.108     0.513 -53.32 -53.32  +0.00  +0.00  +0.00
       116     170.2024     71.87643     507.0949      11.2139    131.5178    429.1405   8.4195781e-01   2.6850922e+00   1.2962357e+00     1.253     0.588 -17.56 -17.56  +0.00  +0.00  +0.00
       117     412.6126     99.43442     507.0662      11.2139    140.8411    434.8895   3.7182501e-01   1.1537225e+00  -2.0548424e-01     1.670     0.926   7.36   7.36  +0.00  +0.00  +0.00
       118     472.6146     102.1676     507.0734      11.2139    135.8674    431.7325   2.9453734e-01   1.3488625e+00  -1.1373181e-01     1.852     0.860   3.08   3.08  +0.00  +0.00  +0.00
       119     116.2406     60.11684     506.7375      11.2139     11.5704    433.1431   2.1718068e+00   1.1729068e+00   1.0224861e+00     1.022     0.647 -67.17 -67.17  +0.00  +0.00  +0.00
       120     279.5547      90.9491     507.6086      11.2139    249.7478    431.4853   2.3914518e+00   7.3290211e-01   1.6786519e+00     1.617     0.604 -67.33 -67.33  +0.00  +0.00  +0.00
       121     103.2976     45.76748     506.7478      11.2139     29.4626    433.5185   4.0342393e+00   4.0171833e+00   4.3474412e-01     0.512     0.485 -46.12 -46.12  +0.00  +0.00  +0.00
       122     41.99963     50.48396     506.9384      11.2139    438.2005    431.1837   7.6467891e+00   2.9957871e+00  -8.2891655e+00     1.326     0.315  59.65  59.65  +0.00  +0.00  +0.00
       123     121.4434     55.81389     506.7425      11.2139     77.6908    430.6790   2.4672558e+00   2.5558450e+00   2.7462485e+00     0.938     0.507 -44.08 -44.08  +0.00  +0.00  +0.00
       124     14.40356     44.98385     507.4906      11.2139    282.4859    429.4667   1.9811211e+01   4.0010114e+00  -1.5905728e+01     1.201     0.208  67.41  67.41  +0.00  +0.00  +0.00
       125     249.0822     78.96416      507.677      11.2139    492.2564    428.1850   1.2890226e+00   1.3349186e+00  -1.9216666e+00     1.688     0.663  44.32  44.32  +0.00  +0.00  +0.00
       126     175.3175     56.19867     507.6849      11.2139    468.7509    428.6890   2.0633605e+00   1.2956562e+00   1.3773339e+00     1.059     0.637 -59.57 -59.57  +0.00  +0.00  +0.00
       127     14.35892     50.26447     507.6612      11.2139    471.2549    426.4917   8.1141424e+00   9.6971297e-01   2.9320338e+00     1.212     0.345 -78.84 -78.84  +0.00  +0.00  +0.00
       128      175.552      71.9062     507.4242      11.2139    399.0022    428.5287   1.9546779e+00   1.1735257e+00   1.2869661e+00     1.110     0.657 -60.63 -60.63  +0.00  +0.00  +0.00
       129      182.851     64.57809     507.6628      11.2139    239.9039    429.3030   9.9021423e-01   2.4303348e+00   2.9920280e-01     1.013     0.639  -5.87  -5.87  +0.00  +0.00  +0.00
       130     122.9507     51.12133     506.7403      11.2139     26.1168    428.5915   2.0910618e+00   4.6625977e+00   2.0933528e+00     0.763     0.446 -19.57 -19.57  +0.00  +0.00  +0.00
       131     329.4804     101.6056     507.4257      11.2139    378.9015    426.3061   9.4417500e-01   2.6552811e+00   2.6567240e+00     2.134     0.544 -28.61 -28.61  +0.00  +0.00  +0.00
       132     147.8917     51.31611     507.4252      11.2139    370.2416    426.5684   2.3053062e+00   5.0116138e+00   2.9368629e+00     0.776     0.421 -23.67 -23.67  +0.00  +0.00  +0.00
       133     239.1389     87.95682     507.2393      11.2139    156.1677    424.8851   1.7581186e+00   1.8887495e+00  -9.2947018e-01     0.859     0.660  41.00  41.00  +0.00  +0.00  +0.00
       134     397.7673     104.3137     507.1308      11.2139    124.8097    424.4964   2.8141478e-01   8.7289870e-01  -1.6874845e-01     1.926     1.063   7.96   7.96  +0.00  +0.00  +0.00
       135     70.91852     45.48361     506.7573      11.2139     66.5129    424.9409   8.3799620e+00   4.0412922e+00   8.4118814e+00     0.822     0.302 -58.64 -58.64  +0.00  +0.00  +0.00
       136     116.0961     55.77556     507.0136      11.2139    422.0934    424.4409   1.5040617e+00   4.0567961e+00   3.4845218e-02     0.815     0.496  -0.39  -0.39  +0.00  +0.00  +0.00
       137     137.3816     60.25734     507.2325      11.2139    337.9955    423.7174   1.3428214e+00   2.9658041e+00   2.9732718e+00     1.473     0.510 -30.69 -30.69  +0.00  +0.00  +0.00
       138     254.5162     75.74087     507.5554      11.2139    261.6267    401.9870   1.5829540e+00   1.3256720e+00   1.6205308e+00     1.256     0.663 -49.51 -49.51  +0.00  +0.00  +0.00
       139     592.0386     107.4233     507.4886      11.2139    287.6967    416.4228   3.5192594e-01   1.2604226e+00  -2.5057098e-01     1.728     0.885   7.71   7.71  +0.00  +0.00  +0.00
       140     467.0354     88.98718      507.489      11.2139    283.7691    413.5999   7.8131568e-01   1.2941617e+00  -7.3116314e-01     1.301     0.821  27.48  27.48  +0.00  +0.00  +0.00
       141     706.0251     114.6297     507.4884      11.2139    294.1270    419.8408   5.2939057e-01   9.3118179e-01  -7.6418030e-01     1.830     0.928  31.13  31.13  +0.00  +0.00  +0.00
       142     220.3475     68.58084       507.21      11.2139    412.3063    425.1745   1.8118453e+00   1.6868471e+00   2.5755129e+00     1.474     0.574 -46.39 -46.39  +0.00  +0.00  +0.00
       143     128.5329     60.19857     507.3613      11.2139    166.9712    423.0174   2.1258709e+00   2.1226275e+00   3.2068281e+00     1.386     0.518 -45.03 -45.03  +0.00  +0.00  +0.00
       144     364.8871     99.24225     507.1596      11.2139    117.4719    420.4814   7.0059776e-01   6.0227007e-01  -5.2557701e-01     1.614     1.043  50.30  50.30  +0.00  +0.00  +0.00
       145     60.32724     45.39037     506.9312      11.2139     95.4694    422.4791   4.0174055e+00   4.0093784e+00  -1.9422588e-01     0.505     0.493  46.18  46.18  +0.00  +0.00  +0.00
       146     167.6669     51.47002     507.4283      11.2139    374.1770    421.1785   4.8420773e+00   4.8878894e+00   7.7303677e+00     1.000     0.338 -44.83 -44.83  +0.00  +0.00  +0.00
       147     73.59998     50.73372     507.8326      11.2139    217.5781    420.7344   4.6692882e+00   2.1516099e+00  -2.2134850e+00     0.759     0.443  69.34  69.34  +0.00  +0.00  +0.00
       148     158.0409     56.07556     507.6139      11.2139    510.9758    420.1480   2.1728399e+00   3.5208983e+00   3.1121109e+00     0.932     0.469 -33.29 -33.29  +0.00  +0.00  +0.00
       149     244.1579     72.28683     506.7625      11.2139     39.9870    419.0339   2.7843096e+00   5.3442707e+00   5.5786448e+00     1.002     0.374 -32.68 -32.68  +0.00  +0.00  +0.00
       150     392.7856     94.15588     506.9675      11.2139     94.8114    414.2144   2.4182634e+00   3.0501223e-01  -1.1310360e+00     2.475     0.625  75.92  75.92  +0.00  +0.00  +0.00
       151     537.3551     102.4207     506.9902      11.2139     95.3958    408.9656   3.6174849e-01   1.8927896e+00  -1.2287222e+00     2.620     0.689  19.37  19.37  +0.00  +0.00  +0.00
       152     296.4977     88.21728     506.8555      11.2139     83.1394    400.3493   4.3281278e-01   1.6129900e+00  -2.0964168e-01     1.537     0.785   5.04   5.04  +0.00  +0.00  +0.00
       153     418.8608     96.89787     506.9507      11.2139     91.1178    405.4675   8.2130980e-01   7.7850181e-01  -3.7906992e-01     1.281     1.005  48.22  48.22  +0.00  +0.00  +0.00
       154     328.8073     88.36366     506.8999      11.2139     87.2783    403.4066   4.9626049e-01   1.5835195e+00  -1.0520317e-02     1.420     0.795   0.28   0.28  +0.00  +0.00  +0.00
       155     116.2973     45.88095     506.7722      11.2139     54.9934    418.5095   4.0001330e+00   8.0066738e+00   8.0053644e+00     0.809     0.309 -31.71 -31.71  +0.00  +0.00  +0.00
       156     164.3609     60.43617     506.7796      11.2139     61.9264    415.7229   1.8437980e+00   2.1970096e+00  -1.2533394e-01     0.739     0.673   9.77   9.77  +0.00  +0.00  +0.00
       157     292.8844     79.18573      506.727      11.2139      8.5140    415.8201   1.9539036e+00   3.7702718e+00   3.4614651e+00     1.050     0.456 -31.16 -31.16  +0.00  +0.00  +0.00
       158     213.5399     72.11721     507.6236      11.2139    249.1856    414.6965   1.1995940e+00   1.4624716e+00   7.3731512e-01     1.032     0.762 -35.19 -35.19  +0.00  +0.00  +0.00
       159     233.2382     75.62841     506.8934      11.2139    436.9181    414.1970   2.1475930e+00   3.0787532e+00   2.6388602e+00     0.908     0.499 -35.28 -35.28  +0.00  +0.00  +0.00
       160     138.1805      64.3008     507.8432      11.2139    219.9810    413.2833   2.4301555e+00   1.4135108e+00   1.4388939e+00     0.980     0.597 -62.62 -62.62  +0.00  +0.00  +0.00
       161     584.3744     97.57873     507.1174      11.2139    106.0750    413.4017   6.9343418e-01   9.3045133e-01  -7.3767138e-01     1.535     0.913  36.09  36.09  +0.00  +0.00  +0.00
       162     206.2812     56.41862     507.2493      11.2139    451.5386    413.1715   1.2954544e+00   2.6088846e+00  -1.2461854e+00     0.977     0.592  21.75  21.75  +0.00  +0.00  +0.00
       163     232.8111     75.62615       507.53      11.2139    265.5732    412.5050   1.4327478e+00   1.3216000e+00   1.6474261e+00     1.346     0.674 -46.93 -46.93  +0.00  +0.00  +0.00
       164     178.0432     64.54829     506.8296      11.2139     84.4641    412.3036   2.8835311e+00   1.4450920e+00   2.8809023e+00     1.343     0.515 -58.27 -58.27  +0.00  +0.00  +0.00
       165     390.4072     91.43534     507.5457      11.2139    263.3535    417.2830   8.2687092e-01   1.4410281e+00   2.0309861e-01     1.111     0.828  -9.15  -9.15  +0.00  +0.00  +0.00
       166     468.6637     106.9629      507.348      11.2139    333.4340    411.8590   6.2826413e-01   2.3509891e+00   1.8128865e+00     2.045     0.604 -23.23 -23.23  +0.00  +0.00  +0.00
       167       141.14     46.09703      507.349      11.2139    340.9080    410.5828   4.0013814e+00   8.1244993e+00   8.0132151e+00     0.801     0.308 -31.39 -31.39  +0.00  +0.00  +0.00
       168     99.51715     50.93764     506.8203      11.2139    434.2398    409.6272   1.9280428e+00   4.6198416e+00   1.6264677e+00     0.767     0.454 -15.57 -15.57  +0.00  +0.00  +0.00
       169     99.66498      50.9388      507.527      11.2139    468.1727    408.6219   2.0721762e+00   4.9102702e+00   2.3342841e+00     0.778     0.433 -19.72 -19.72  +0.00  +0.00  +0.00
       170     142.6825      55.9659     506.9167      11.2139    427.4015    408.5251   1.6613833e+00   5.6768703e+00   3.3281736e+00     0.971     0.399 -19.83 -19.83  +0.00  +0.00  +0.00
       171     299.8384     88.23242     507.8149      11.2139    224.7253    408.2105   7.2695035e-01   2.1091197e+00   2.0230858e-01     1.179     0.687  -4.16  -4.16  +0.00  +0.00  +0.00
       172     119.7122     45.91072     507.5191      11.2139    483.5074    407.5133   4.0015097e+00   4.0034852e+00  -1.0138748e-01     0.503     0.497  44.44  44.44  +0.00  +0.00  +0.00
       173     207.9741     68.50864     507.3755      11.2139    403.9895    407.2439   8.0127311e-01   1.7638739e+00   6.9018298e-01     1.204     0.730 -17.82 -17.82  +0.00  +0.00  +0.00
       174     411.5402     94.23553     507.4359      11.2139    400.4472    406.2347   1.9859582e+00   5.1622277e-01  -3.8397003e-02     1.392     0.710  89.25  89.25  +0.00  +0.00  +0.00
       175     393.6903     111.2973     507.4154      11.2139    329.8723    404.4521   4.6907204e-01   6.7874825e-01  -3.8312781e-01     1.677     1.123  30.65  30.65  +0.00  +0.00  +0.00
       176      164.261     60.43551     507.4472      11.2139    317.3205    404.6938   1.8049018e+00   3.5559220e+00   3.2715013e+00     1.101     0.470 -30.92 -30.92  +0.00  +0.00  +0.00
       177     91.36841     50.87362     506.7895      11.2139     41.1990    404.8266   3.1295853e+00   3.2242625e+00   4.0975657e+00     0.942     0.437 -44.34 -44.34  +0.00  +0.00  +0.00
       178     89.69565     45.64845     507.9783      11.2139    209.4080    403.0399   7.9200897e+00   1.9802027e+01   2.3718716e+01     1.294     0.192 -31.70 -31.70  +0.00  +0.00  +0.00
       179     76.22983      45.5303     507.4002      11.2139    357.9774    410.5132   4.0018435e+00   7.9220514e+00   7.9206662e+00     0.805     0.310 -31.83 -31.83  +0.00  +0.00  +0.00
       180     229.1277     78.86301     507.6985      11.2139    239.0784    400.7850   1.0236578e+00   2.5725474e+00   5.3713232e-01     1.011     0.618  -9.56  -9.56  +0.00  +0.00  +0.00
       181     163.9696     71.84174     507.4299      11.2139    383.3179    398.5152   8.3003384e-01   1.6396914e+00  -3.3650261e-01     1.121     0.773  11.28  11.28  +0.00  +0.00  +0.00
       182       202.04     75.46323     506.8168      11.2139     56.6867    400.9781   2.0814619e+00   1.8790854e+00  -1.1576001e-01     0.733     0.691  75.12  75.12  +0.00  +0.00  +0.00
       183     272.6638     82.20225     507.1252      11.2139    448.7635    399.8771   1.2769307e+00   3.5253949e+00   1.9898971e+00     1.054     0.506 -20.75 -20.75  +0.00  +0.00  +0.00
       184     227.7166     84.99563     507.4192      11.2139    471.5021    396.5226   8.3944589e-01   4.0091643e+00   5.8458563e-02     1.092     0.499  -0.53  -0.53  +0.00  +0.00  +0.00
       185     121.3905     55.81351     507.3935      11.2139    507.3386    395.5173   9.6208543e-01   4.3895159e+00  -1.2168056e+00     1.080     0.472   9.77   9.77  +0.00  +0.00  +0.00
       186     96.16443     45.70509     507.2667      11.2139    111.2192    399.5565   1.3972100e+01   7.8172569e+00   1.9746668e+01     1.345     0.217 -53.66 -53.66  +0.00  +0.00  +0.00
       187     74.25085     45.51291     507.3552      11.2139    500.5090    392.7164   7.3301220e+00   1.2670228e+01   1.8126440e+01     1.346     0.227 -36.79 -36.79  +0.00  +0.00  +0.00
       188     141.5298     55.95766     506.8035      11.2139      4.6645    391.6468   2.5907459e+00   2.5384405e+00   2.4712405e+00     0.868     0.513 -45.61 -45.61  +0.00  +0.00  +0.00
       189     119.3841     51.09342     507.3513      11.2139    473.0510    390.5561   5.4110956e+00   4.1931419e+00   8.3248634e+00     1.296     0.333 -49.16 -49.16  +0.00  +0.00  +0.00
       190     116.4362     45.88216     507.2971      11.2139    461.1259    391.8056   1.8787568e+00   8.5965462e+00   4.0772161e+00     0.874     0.330 -15.63 -15.63  +0.00  +0.00  +0.00
       191     119.6043     55.80071     506.9199      11.2139    440.0038    391.4904   1.5419600e+00   4.0135274e+00  -2.7247733e-01     0.807     0.499   3.15   3.15  +0.00  +0.00  +0.00
       192     192.9619     60.62517     507.0887      11.2139    416.5731    390.9129   1.3853841e+00   2.4898503e+00  -5.4343110e-01     0.870     0.626  13.10  13.10  +0.00  +0.00  +0.00
       193     168.8259     84.71803     507.7596      11.2139    231.0732    390.9774   4.9069583e-01   1.3064469e+00   4.1169339e-01     1.505     0.859 -13.39 -13.39  +0.00  +0.00  +0.00
       194     638.2056     116.5707      507.459      11.2139    170.7879    383.9299   5.4245156e-01   7.9256690e-01  -3.5790092e-01     1.492     1.062  27.53  27.53  +0.00  +0.00  +0.00
       195     176.5875     68.32513     507.4697      11.2139    300.5921    390.0699   1.2210683e+00   2.6028254e+00   1.8220593e+00     1.141     0.572 -26.41 -26.41  +0.00  +0.00  +0.00
       196     195.1398     56.33958     507.3912      11.2139    361.0959    388.6679   2.2194018e+00   4.8359966e+00   5.0322218e+00     1.202     0.396 -31.26 -31.26  +0.00  +0.00  +0.00
       197     136.5877     75.11549     507.4789      11.2139    287.8139    389.0148   9.8696166e-01   1.3016790e+00   5.0909293e-01     1.088     0.832 -29.14 -29.14  +0.00  +0.00  +0.00
       198     85.57901     59.91248     507.4021      11.2139    161.1833    389.1462   1.2628500e+00   3.1990511e+00   2.0362945e+00     1.100     0.524 -23.22 -23.22  +0.00  +0.00  +0.00
       199     179.0312     56.22509     507.3644      11.2139    347.8137    387.1377   2.4666564e+00   2.4719608e+00   1.5192519e+00     0.765     0.557 -44.90 -44.90  +0.00  +0.00  +0.00
       200      400.992     94.19074     507.6458      11.2139    187.6447    386.5111   1.5311413e+00   1.6798710e+00   1.9460151e+00     1.260     0.622 -42.81 -42.81  +0.00  +0.00  +0.00
       201      165.878     60.44621     507.1434      11.2139     99.1436    387.2676   1.7490497e+00   2.4263821e+00   1.2144210e+00     0.847     0.599 -30.42 -30.42  +0.00  +0.00  +0.00
       202     68.80731     45.46504     507.1939      11.2139    458.4627    386.4428   4.0491080e+00   4.0798984e+00  -6.6016972e-01     0.517     0.477  43.66  43.66  +0.00  +0.00  +0.00
       203     97.48709     45.71667     507.4052      11.2139    320.7451    386.5039   1.6090418e+00   4.4826913e+00   1.7621294e+00     0.857     0.460 -15.76 -15.76  +0.00  +0.00  +0.00
       204      143.439     60.29754     507.4822      11.2139    281.7220    385.1399   2.6346433e+00   2.9003918e+00   4.4305453e+00     1.351     0.448 -43.28 -43.28  +0.00  +0.00  +0.00
       205      326.932     91.15724      507.938      11.2139    209.2835    386.4235   1.0426949e+00   4.3218865e+00   9.7094154e-01     1.014     0.477  -8.25  -8.25  +0.00  +0.00  +0.00
       206     107.7402     51.00218     507.3409      11.2139    336.4001    384.7971   4.6107497e+00   2.1278279e+00   1.9448510e+00     0.747     0.450 -70.96 -70.96  +0.00  +0.00  +0.00
       207     157.6544     56.07281       507.49      11.2139    274.0422    384.2719   1.2841139e+00   2.8328731e+00   2.3039951e+00     1.221     0.539 -28.05 -28.05  +0.00  +0.00  +0.00
       208     121.1486     51.10723     507.3204      11.2139    144.7720    383.6621   2.5023494e+00   1.9731629e+00   2.2700779e+00     0.966     0.542 -51.56 -51.56  +0.00  +0.00  +0.00
       209     59.16119      45.3801     507.3825      11.2139    370.4360    382.9490   8.0038424e+00   4.0029926e+00  -7.9398766e+00     0.801     0.309  58.37  58.37  +0.00  +0.00  +0.00
       210     277.5548      68.9137     507.6645      11.2139    241.2374    383.4176   6.8231130e-01   4.1494861e+00  -3.2164672e-01     1.217     0.490   2.65   2.65  +0.00  +0.00  +0.00
       211     277.1683     90.93861     507.3081      11.2139    128.3955    382.7668   2.5040452e+00   5.9037499e+00   6.1591830e+00     1.207     0.360 -30.55 -30.55  +0.00  +0.00  +0.00
       212     136.6711     60.25262     506.9651      11.2139     34.3137    382.4490   1.0804001e+00   4.3614287e+00   1.1748689e+00     1.011     0.473  -9.85  -9.85  +0.00  +0.00  +0.00
       213     132.5715     55.89359     507.1587      11.2139     98.4048    381.1760   2.1229584e+00   2.1821339e+00   5.9670550e-01     0.735     0.639 -42.17 -42.17  +0.00  +0.00  +0.00
       214     165.8008     56.13089     507.1648      11.2139    509.4742    380.4840   1.4911451e+00   5.7343369e+00   3.2124820e+00     1.025     0.399 -18.56 -18.56  +0.00  +0.00  +0.00
       215     125.8522     51.14403     507.2343      11.2139    482.8954    381.7549   4.5721378e+00   5.3336182e+00   7.9843726e+00     1.030     0.334 -42.28 -42.28  +0.00  +0.00  +0.00
       216     141.3616     51.26519     507.3571      11.2139    365.2249    377.2100   1.0511079e+00   8.5544920e+00   3.2594683e+00     1.185     0.335 -11.74 -11.74  +0.00  +0.00  +0.00
       217     186.2558     64.59917     507.6488      11.2139    189.4410    377.6188   7.4241966e-01   4.9416690e+00   1.4443731e+00     1.268     0.444  -9.49  -9.49  +0.00  +0.00  +0.00
       218     102.5047     45.76055     507.3122      11.2139    127.5101    377.4484   4.0032768e+00   4.0447793e+00   1.6349062e-01     0.504     0.493 -37.88 -37.88  +0.00  +0.00  +0.00
       219     376.7803     94.08787      507.295      11.2139    400.3278    376.3145   2.4394190e+00   2.5531046e+00   2.6324141e+00     0.921     0.512 -43.76 -43.76  +0.00  +0.00  +0.00
       220     191.8451     56.31618     506.9099      11.2139     66.2275    390.6201   2.2097821e+00   1.9685584e+00  -2.7847627e-01     0.725     0.663  65.45  65.45  +0.00  +0.00  +0.00
       221     191.7891     75.40887     507.1037      11.2139     85.5079    374.3941   1.0253601e+00   1.5646201e+00   1.7533343e-01     0.994     0.796  -9.01  -9.01  +0.00  +0.00  +0.00
       222     347.7548     93.96439     507.0681      11.2139     78.3723    374.4228   6.5693718e-01   1.5877601e+00   1.5905759e+00     2.231     0.699 -29.83 -29.83  +0.00  +0.00  +0.00
       223      128.181     68.04115     507.0681      11.2139     66.2868    373.7640   3.0702729e+00   3.2210133e+00   3.8356395e+00     0.903     0.444 -43.87 -43.87  +0.00  +0.00  +0.00
       224     13.43149     71.09454     506.9499      11.2139    446.8249    371.2304   4.6622963e+00   4.6610317e+00  -7.2690945e+00     0.987     0.347  45.00  45.00  +0.00  +0.00  +0.00
       225     226.4765      60.8459     506.9005      11.2139    426.4094    371.8882   2.5166082e+00   2.6082118e+00   3.2092147e+00     1.022     0.490 -44.18 -44.18  +0.00  +0.00  +0.00
       226     92.51031      45.6731     507.4541      11.2139    297.9910    373.4708   4.0098090e+00   7.7971368e+00  -7.7900033e+00     0.797     0.313  32.04  32.04  +0.00  +0.00  +0.00
       227     124.0067     64.21256     507.0867      11.2139     59.7169    372.0742   1.3620081e+00   2.3406131e+00   1.3354721e+00     0.988     0.611 -26.88 -26.88  +0.00  +0.00  +0.00
       228     127.2783     51.15518     507.0692      11.2139     44.1818    372.5702   2.0160871e+00   4.4795127e+00   1.7942339e+00     0.762     0.458 -18.03 -18.03  +0.00  +0.00  +0.00
       229     72.67969      45.4991     507.2898      11.2139    392.9676    371.5049   4.0121784e+00   7.9756479e+00   7.9873543e+00     0.807     0.309 -31.80 -31.80  +0.00  +0.00  +0.00
       230     221.9194     72.16367     507.3998      11.2139    312.4369    370.1776   4.5895386e+00   2.0858605e+00  -2.0923836e+00     0.766     0.449  70.06  70.06  +0.00  +0.00  +0.00
       231     191.8814     75.40936     507.0815      11.2139    412.9192    368.5218   8.7989020e-01   1.4974788e+00   3.7242749e-01     1.099     0.803 -15.55 -15.55  +0.00  +0.00  +0.00
       232     99.35007     45.73297     507.5571      11.2139    260.2749    369.7415   2.0477226e+00   7.1753831e+00   4.0045352e+00     0.858     0.357 -18.99 -18.99  +0.00  +0.00  +0.00
       233      85.2684     50.82563     507.0759      11.2139     17.1949    368.4135   2.0771687e+00   1.0843616e+00   1.1012256e+00     1.091     0.656 -66.02 -66.02  +0.00  +0.00  +0.00
       234     164.9439     56.12478      506.869      11.2139    440.1169    368.1440   5.9806067e-01   8.1246681e+00   1.6334680e-01     1.294     0.351  -0.62  -0.62  +0.00  +0.00  +0.00
       235     152.7455     51.35394     507.1225      11.2139    466.0736    366.9403   2.5919955e+00   2.7041452e+00  -6.1603982e-02     0.622     0.607  14.39  14.39  +0.00  +0.00  +0.00
       236     214.4194     81.91833     507.6295      11.2139    245.2663    366.7457   4.1290340e-01   1.5815754e+00   2.6927814e-01     1.586     0.791  -6.49  -6.49  +0.00  +0.00  +0.00
       237      108.392     60.06459     507.8341      11.2139    205.9164    367.0427   1.2542460e+00   2.2051647e+00   1.3515087e+00     1.052     0.625 -27.43 -27.43  +0.00  +0.00  +0.00
       238     177.7004     64.54617     507.4598      11.2139    170.2861    366.5699   1.2704887e+00   2.3051770e+00   9.0222120e-01     0.953     0.636 -20.54 -20.54  +0.00  +0.00  +0.00
       239     56.38971     45.35566     507.2176      11.2139    402.5027    366.5192   4.0033321e+00   4.0091214e+00  -2.2721247e-01     0.507     0.493  44.27  44.27  +0.00  +0.00  +0.00
       240     328.2904     79.36437     507.5471      11.2139    181.8688    363.9686   1.0044295e+00   3.6104977e+00   1.1386504e+00     1.063     0.518 -11.80 -11.80  +0.00  +0.00  +0.00
       241     238.0227     72.25288       507.16      11.2139     80.5570    361.2547   1.3824730e+00   1.7680625e+00   1.5501384e+00     1.135     0.649 -38.02 -38.02  +0.00  +0.00  +0.00
       242     153.5629     56.04361     507.2632      11.2139    340.5036    361.6464   1.0969720e+00   4.3762116e+00   7.7909343e-02     0.955     0.478  -0.68  -0.68  +0.00  +0.00  +0.00
       243     392.6829     94.15545     507.6032      11.2139    248.1432    359.2887   6.4895302e-01   8.0003816e-01   2.0665883e-01     1.295     1.083 -26.92 -26.92  +0.00  +0.00  +0.00
       244     175.1352     51.52803      507.087      11.2139    474.4485    362.7287   4.5645890e+00   2.3142328e+00   2.1977339e+00     0.732     0.447 -67.84 -67.84  +0.00  +0.00  +0.00
       245     211.1462     68.52715     507.2822      11.2139    106.0208    360.7850   3.3280578e+00   2.2472012e+00  -2.1752458e+00     0.797     0.500  58.21  58.21  +0.00  +0.00  +0.00
       246      420.372     96.90411     507.1942      11.2139     88.0768    361.0187   7.9271412e-01   1.8503873e+00   6.0748500e-01     1.185     0.720 -14.94 -14.94  +0.00  +0.00  +0.00
       247     201.7584     75.46173     507.4261      11.2139    159.3061    358.6882   7.9148042e-01   1.6112076e+00  -1.7023312e+00     1.974     0.683  32.14  32.14  +0.00  +0.00  +0.00
       248     142.6425     46.11006     507.2491      11.2139    394.4492    359.5719   4.0782652e+00   4.1212854e+00   7.7551425e-01     0.519     0.472 -43.41 -43.41  +0.00  +0.00  +0.00
       249     77.33298     45.53999     507.3394      11.2139    322.4953    359.4881   4.0079665e+00   4.0098839e+00  -3.4931573e-01     0.511     0.489  44.84  44.84  +0.00  +0.00  +0.00
       250     485.2297     104.6485      507.111      11.2139    468.1614    356.7056   1.0016857e+00   1.3719376e+00   1.9630737e+00     2.307     0.676 -39.66 -39.66  +0.00  +0.00  +0.00
       251     89.92062     50.86223     507.1827      11.2139     74.6260    356.7361   4.6291871e+00   2.0496979e+00  -1.7133216e+00     0.747     0.452  73.20  73.20  +0.00  +0.00  +0.00
       252     130.3638     60.21074     507.4597      11.2139    292.2412    356.2154   1.3596205e+00   3.4245393e+00   2.3085539e+00     1.089     0.504 -24.09 -24.09  +0.00  +0.00  +0.00
       253     353.4719      85.5854     507.1827      11.2139     39.2023    356.6227   2.1879041e+00   4.6794214e+00   1.9238886e+00     0.733     0.447 -18.84 -18.84  +0.00  +0.00  +0.00
       254     115.1047     45.87056      507.194      11.2139     71.1700    354.7989   2.1552918e+00   8.5506659e+00   4.4780903e+00     0.831     0.329 -17.50 -17.50  +0.00  +0.00  +0.00
       255     190.0981     64.62296     507.2132      11.2139     14.0197    354.2104   7.9411751e-01   2.7043066e+00  -1.0506014e+00     1.232     0.593  14.41  14.41  +0.00  +0.00  +0.00
       256     610.2141     122.7817     507.5192      11.2139    266.4420    351.0806   8.0514503e-01   3.9834756e-01  -6.2957966e-01     2.099     1.012  61.43  61.43  +0.00  +0.00  +0.00
       257     140.0535      46.0876     506.8793      11.2139    511.4742    360.0417   7.1867323e+00   4.0579033e+00   7.1799798e+00     0.766     0.324 -56.77 -56.77  +0.00  +0.00  +0.00
       258     47.04025     45.27313     507.3329      11.2139    371.2761    352.4456   1.7119257e+00   4.4919448e+00   1.7435355e+00     0.827     0.459 -16.05 -16.05  +0.00  +0.00  +0.00
       259      265.527     85.17339     507.3277      11.2139    323.5059    351.7573   4.9358499e-01   1.8398026e+00   1.1300169e-01     1.427     0.737  -2.40  -2.40  +0.00  +0.00  +0.00
       260     125.7667     45.96344     507.4532      11.2139    295.9877    351.5162   4.0012517e+00   7.8795118e+00   7.8755503e+00     0.803     0.311 -31.89 -31.89  +0.00  +0.00  +0.00
       261      218.338     68.56912     507.7214      11.2139    218.3032    350.3665   2.3680241e+00   9.6137005e-01  -2.8989115e-01     1.028     0.648  84.18  84.18  +0.00  +0.00  +0.00
       262     54.72827       45.341     507.4194      11.2139    151.7470    351.5117   1.6232187e+00   4.3650484e+00   1.5349505e+00     0.838     0.468 -14.62 -14.62  +0.00  +0.00  +0.00
       263     134.8314     46.04226     507.4661      11.2139    168.4918    350.5180   4.0031891e+00   4.0073342e+00  -1.8439302e-01     0.506     0.494  44.36  44.36  +0.00  +0.00  +0.00
       264     210.1783     72.09856     507.1432      11.2139    406.3114    354.6227   1.3151438e+00   1.8365937e+00   1.6864984e+00     1.201     0.638 -36.41 -36.41  +0.00  +0.00  +0.00
       265     460.1401     111.5359     507.5557      11.2139    255.6730    347.0191   2.7608666e-01   6.7704177e-01  -2.3961897e-01     2.029     1.187  15.43  15.43  +0.00  +0.00  +0.00
       266     177.7932     56.21628     507.6692      11.2139    228.4863    347.5318   1.6403151e+00   5.4551291e+00   3.0726154e+00     0.954     0.408 -19.42 -19.42  +0.00  +0.00  +0.00
       267     174.5293     84.74496     507.3743      11.2139    315.9258    343.7375   1.8159584e+00   4.0494654e-01   1.7558722e-01     1.582     0.741 -86.45 -86.45  +0.00  +0.00  +0.00
       268     321.3692       93.852     507.4844      11.2139    277.0734    344.3270   6.4362991e-01   1.1522801e+00  -5.1827997e-01     1.367     0.891  22.77  22.77  +0.00  +0.00  +0.00
       269     79.83212     55.51488     507.0512      11.2139    456.5043    344.0173   4.0241609e+00   1.4690793e+00  -3.7450495e-01     0.829     0.498  85.83  85.83  +0.00  +0.00  +0.00
       270     430.9222     91.61241     507.4457      11.2139    151.5134    342.2647   1.2333918e+00   5.6139052e-01   8.5957891e-01     1.686     0.832 -64.01 -64.01  +0.00  +0.00  +0.00
       271     470.8113     106.9709     507.5754      11.2139    249.4479    341.7464   3.4725755e-01   6.4140528e-01   5.1392615e-01     2.246     1.125 -30.11 -30.11  +0.00  +0.00  +0.00
       272     189.7668      64.6209     507.4151      11.2139    308.7531    340.0722   1.7085785e+00   2.8588486e+00   2.7737424e+00     1.131     0.514 -33.74 -33.74  +0.00  +0.00  +0.00
       273     183.7976     68.36733     507.1252      11.2139    465.5244    344.3347   9.5661277e-01   2.4743006e+00   3.8407201e-01     1.035     0.633  -7.10  -7.10  +0.00  +0.00  +0.00
       274     102.2408     50.95903     507.2791      11.2139     74.2334    339.9520   2.2234542e+00   3.2556334e+00   2.3858566e+00     0.833     0.498 -33.30 -33.30  +0.00  +0.00  +0.00
       275     193.6621     56.32909     507.2606      11.2139    383.3887    338.9944   1.2245125e+00   3.3107963e+00  -1.7638862e-02     0.904     0.550   0.24   0.24  +0.00  +0.00  +0.00
       276     122.7188     55.82304     507.2904      11.2139     64.8055    338.3586   5.7485752e+00   2.3078086e+00   5.7737303e+00     1.224     0.368 -60.40 -60.40  +0.00  +0.00  +0.00
       277     171.0221     64.50478     507.1279      11.2139    464.0933    337.2528   2.1535444e+00   2.6674435e+00   3.5932088e+00     1.296     0.486 -40.93 -40.93  +0.00  +0.00  +0.00
       278     160.2393     64.43787     507.5201      11.2139    264.2846    337.2505   1.7278107e+00   1.8232287e+00   2.2186849e+00     1.226     0.589 -43.77 -43.77  +0.00  +0.00  +0.00
       279     147.7879     56.00238     507.4505      11.2139    143.8361    336.1670   5.5867219e+00   8.8776112e+00  -1.3353844e+01     1.677     0.266  38.08  38.08  +0.00  +0.00  +0.00
       280     176.5231     68.32476     507.6718      11.2139    208.2143    334.6137   2.0186503e+00   4.6496096e+00   1.8668447e+00     0.762     0.450 -17.68 -17.68  +0.00  +0.00  +0.00
       281     61.01865     50.63443     507.2975      11.2139     51.1710    333.9255   2.3155851e+00   2.8443496e+00  -2.0760975e+00     0.814     0.523  37.86  37.86  +0.00  +0.00  +0.00
       282     45.76596     45.26187     507.1596      11.2139    398.6908    333.0251   4.9195924e+00   6.8716021e+00   9.6917067e+00     1.025     0.304 -39.31 -39.31  +0.00  +0.00  +0.00
       283     361.9227     82.63544     507.4529      11.2139    140.5102    333.2357   9.3544888e-01   8.2794342e+00   2.6817448e+00     1.197     0.343 -10.03 -10.03  +0.00  +0.00  +0.00
       284     153.2577     46.20206     507.3993      11.2139    113.5054    333.4217   4.0122285e+00   4.1126785e+00   4.3973148e-01     0.511     0.483 -38.57 -38.57  +0.00  +0.00  +0.00
       285     289.1476     85.28424     507.0058      11.2139    414.2697    331.0518   1.2766007e+00   2.5277374e+00   1.3815786e+00     1.015     0.594 -23.92 -23.92  +0.00  +0.00  +0.00
       286      197.709     72.02935     507.3117      11.2139    323.2751    329.8730   2.3275325e+00   5.9338417e+00   6.0041537e+00     1.261     0.362 -29.50 -29.50  +0.00  +0.00  +0.00
       287     92.92596     45.67674     507.6019      11.2139    238.2344    330.7481   2.0220158e+00   7.4247179e+00   4.1385517e+00     0.870     0.351 -18.73 -18.73  +0.00  +0.00  +0.00
       288     384.2058     104.2617     507.6507      11.2139    218.4284    328.7273   5.2570438e-01   2.5006189e+00   1.5163795e+00     1.931     0.602 -18.76 -18.76  +0.00  +0.00  +0.00
       289     144.9678     64.34301     507.6311      11.2139    224.7078    323.3279   1.6100526e+00   1.5641570e+00  -1.1427912e+00     0.992     0.681  46.15  46.15  +0.00  +0.00  +0.00
       290     156.3767     64.41389      507.515      11.2139    264.9847    329.2588   1.7776194e+00   1.8536946e+00   8.2725930e-01     0.845     0.669 -42.37 -42.37  +0.00  +0.00  +0.00
       291     118.9837     60.13509     507.5246      11.2139    262.2920    327.2924   1.7100933e+00   2.3611174e+00  -8.2627952e-02     0.765     0.650   3.62   3.62  +0.00  +0.00  +0.00
       292     95.30145     55.62623     507.4747      11.2139    150.3412    329.2072   1.3479633e+00   2.5733418e+00   1.3547194e+00     0.977     0.590 -23.93 -23.93  +0.00  +0.00  +0.00
       293     153.2727     51.35804     507.4495      11.2139    134.1642    329.6072   2.1862140e+00   4.9162469e+00   2.5153000e+00     0.768     0.430 -21.33 -21.33  +0.00  +0.00  +0.00
       294     133.8705     46.03391     507.0497      11.2139    478.0229    328.5128   4.0276361e+00   7.6967964e+00   7.7146173e+00     0.793     0.314 -32.28 -32.28  +0.00  +0.00  +0.00
       295     43.43173     45.24123      507.203      11.2139    391.2222    331.2330   7.7608242e+00   2.0299587e+00  -4.0034585e+00     0.845     0.345  72.53  72.53  +0.00  +0.00  +0.00
       296     89.74591     45.64889     507.3219      11.2139     60.4379    327.2866   6.9811044e+00   1.3018105e+01   1.7966148e+01     1.383     0.227 -35.71 -35.71  +0.00  +0.00  +0.00
       297     162.9365     56.11047     506.8942      11.2139    442.1911    325.9890   3.4473820e+00   2.3811400e+00   3.3715644e+00     0.934     0.462 -53.77 -53.77  +0.00  +0.00  +0.00
       298     174.3488     68.31203       507.44      11.2139    108.2404    323.2942   1.8026428e+00   2.0357122e+00   2.5300486e+00     1.241     0.560 -42.37 -42.37  +0.00  +0.00  +0.00
       299        59.53     45.38334     507.6185      11.2139     15.4817    324.5156   4.0053835e+00   4.0039248e+00   2.2266159e-02     0.500     0.499 -46.87 -46.87  +0.00  +0.00  +0.00
       300     129.8471     45.99893     507.0476      11.2139    409.9445    323.5309   4.0555067e+00   7.2537165e+00   7.2479219e+00     0.768     0.322 -33.10 -33.10  +0.00  +0.00  +0.00
       301     115.1638     60.10968     507.2608      11.2139    355.0298    323.2584   1.8287877e+00   2.2562487e+00   8.4498160e-02     0.740     0.665  -5.59  -5.59  +0.00  +0.00  +0.00
       302     231.8954     68.64816     507.6494      11.2139    216.8315    322.9001   7.5432032e-01   4.0429091e+00  -2.4015114e+00     1.661     0.475  18.07  18.07  +0.00  +0.00  +0.00
       303     90.19589     45.65283     507.0481      11.2139    499.9638    322.5154   4.0092988e+00   8.2104683e+00   8.2135811e+00     0.817     0.305 -31.46 -31.46  +0.00  +0.00  +0.00
       304     128.8685     64.24284     507.5019      11.2139    178.5342    320.7726   8.7291747e-01   2.4740047e+00  -5.0943178e-01     1.095     0.631   8.82   8.82  +0.00  +0.00  +0.00
       305      113.852     55.75946     507.4878      11.2139    139.8379    320.7877   2.5662081e+00   2.4182129e+00  -1.3459643e+00     0.742     0.562  48.14  48.14  +0.00  +0.00  +0.00
       306     386.2692     104.2696     507.4739      11.2139    115.1950    317.5025   6.1164063e-01   5.0234699e-01  -2.1305257e-01     1.512     1.216  58.58  58.58  +0.00  +0.00  +0.00
       307     326.6738     85.46007     507.4855      11.2139    111.2784    314.7540   7.0339757e-01   1.2377057e+00   3.9992025e-01     1.253     0.876 -18.41 -18.41  +0.00  +0.00  +0.00
       308      124.072     55.83273     507.4254      11.2139    291.9992    319.4966   1.6193192e+00   4.0404615e+00   5.1077497e-01     0.792     0.496  -5.96  -5.96  +0.00  +0.00  +0.00
       309     196.8281     56.35156     507.5194      11.2139    263.1557    318.1932   1.9796647e+00   2.0587277e+00   3.4365873e+00     1.824     0.517 -44.34 -44.34  +0.00  +0.00  +0.00
       310     400.1581     85.80332     507.6591      11.2139    208.1266    318.9785   6.3003981e-01   1.6741259e+00   2.2807641e-01     1.272     0.770  -6.16  -6.16  +0.00  +0.00  +0.00
       311     332.0249     88.37822     507.4943      11.2139    167.2288    318.3794   3.9458546e-01   2.9495468e+00   8.3430558e-01     1.746     0.576  -9.04  -9.04  +0.00  +0.00  +0.00
       312     73.54828     45.50673     507.4504      11.2139     97.7595    318.5135   1.6279597e+00   4.3541131e+00   1.5122210e+00     0.836     0.469 -14.51 -14.51  +0.00  +0.00  +0.00
       313     179.8011     56.23057     507.4315      11.2139    289.2082    316.7612   2.5521193e+00   2.3226211e+00   1.3998885e+00     0.761     0.564 -49.66 -49.66  +0.00  +0.00  +0.00
       314     127.5401     55.85757     507.2288      11.2139    503.0468    315.6700   1.0255309e+00   5.3656087e+00  -1.8589339e+00     1.094     0.424  11.59  11.59  +0.00  +0.00  +0.00
       315     196.4934     75.43382     507.4409      11.2139    285.1087    314.2937   2.0851226e+00   9.1803187e-01   1.3200626e+00     1.269     0.648 -65.74 -65.74  +0.00  +0.00  +0.00
       316     316.7519     96.47543     507.6021      11.2139    198.2094    313.7968   4.4504541e-01   7.8835315e-01  -1.1987342e-01     1.516     1.119   9.62   9.62  +0.00  +0.00  +0.00
       317     201.9549     75.46277     507.1067      11.2139    462.1917    312.8748   2.4019032e+00   2.3997259e+00   1.5229970e+00     0.781     0.562 -45.04 -45.04  +0.00  +0.00  +0.00
       318     212.9921     68.53793     507.6306      11.2139    223.2140    311.9531   9.9586344e-01   2.3249159e+00   1.1917561e+00     1.141     0.626 -20.94 -20.94  +0.00  +0.00  +0.00
       319     165.9666      60.4468     507.4563      11.2139    279.5533    311.2914   1.6706103e+00   2.7648275e+00   2.0969255e+00     0.983     0.542 -31.22 -31.22  +0.00  +0.00  +0.00
       320     316.5648     88.30822     507.6363      11.2139    205.3539    310.3243   9.7293520e-01   1.1451757e+00   1.1367033e+00     1.437     0.782 -40.69 -40.69  +0.00  +0.00  +0.00
       321     104.7549     74.94578     507.1783      11.2139    470.5167    309.5046   4.5615402e-01   2.0751901e+00   1.2261697e+00     1.999     0.662 -18.57 -18.57  +0.00  +0.00  +0.00
       322     181.3207     56.24138      507.574      11.2139    193.1634    309.8042   2.2063596e+00   2.4289703e+00   1.2447827e+00     0.770     0.582 -39.93 -39.93  +0.00  +0.00  +0.00
       323     495.7787     111.6636     507.5213      11.2139    183.1813    304.7105   9.1211939e-01   1.0384980e+00  -5.4418308e-01     1.199     0.893  38.46  38.46  +0.00  +0.00  +0.00
       324      104.009      45.7737     506.9048      11.2139    443.1733    307.7785   2.1331973e+00   8.2050562e+00   4.5302353e+00     0.851     0.334 -18.36 -18.36  +0.00  +0.00  +0.00
       325     446.9713     111.4887     507.5239      11.2139     93.8933    306.5567   5.5421883e-01   9.1135901e-01   3.9028716e-01     1.461     1.001 -23.77 -23.77  +0.00  +0.00  +0.00
       326     138.2055      55.9339     507.7404      11.2139     26.4579    307.6619   1.1772794e+00   4.4736748e+00   1.5293896e-01     0.922     0.473  -1.33  -1.33  +0.00  +0.00  +0.00
       327     232.3285     56.60299     507.4616      11.2139     70.8339    304.9514   3.2399917e+00   2.5718429e+00   3.5536096e+00     0.954     0.461 -50.32 -50.32  +0.00  +0.00  +0.00
       328     239.1811     75.65984     508.1382      11.2139      8.8907    304.7919   1.1402469e+00   1.1776422e+00   8.5181154e-02     0.948     0.911 -33.15 -33.15  +0.00  +0.00  +0.00
       329     175.8168     56.20222     507.5113      11.2139    502.1776    303.5062   4.6254392e+00   5.6951580e+00   9.2101212e+00     1.381     0.319 -41.69 -41.69  +0.00  +0.00  +0.00
       330      148.959     60.33414     507.0847      11.2139    459.8014    303.1155   2.8320847e+00   1.1584070e+00  -1.0704987e+00     0.999     0.578  73.70  73.70  +0.00  +0.00  +0.00
       331     269.2817     72.42572     507.1862      11.2139    347.2292    303.8320   2.5458200e+00   2.3805394e+00   1.3974750e+00     0.754     0.562 -48.37 -48.37  +0.00  +0.00  +0.00
       332     107.1741     67.91755     507.1724      11.2139    334.7661    302.6313   4.9599618e-01   2.5921443e+00   5.9579682e-01     1.483     0.616  -7.93  -7.93  +0.00  +0.00  +0.00
       333     93.29065     50.88873     506.9681      11.2139    449.2185    302.5818   2.0383775e+00   4.6897616e+00   2.1743941e+00     0.779     0.444 -19.68 -19.68  +0.00  +0.00  +0.00
       334     94.28311     45.68863     507.5729      11.2139    130.7554    301.7131   7.1145625e+00   1.9096924e+00  -3.6053498e+00     0.862     0.361  72.65  72.65  +0.00  +0.00  +0.00
       335     563.7614     107.3179     507.5775      11.2139     81.9897    301.9946   3.5251936e-01   1.4188534e+00   3.5252556e-01     1.756     0.831  -9.15  -9.15  +0.00  +0.00  +0.00
       336     194.4677      56.3348     507.5775      11.2139    104.5670    301.6818   1.0860884e+00   4.6180067e+00  -1.9342096e-01     0.961     0.465   1.57   1.57  +0.00  +0.00  +0.00
       337     246.4493     82.07458     507.2643      11.2139    320.7550    299.5060   1.1369054e+00   3.2470620e+00   3.4143775e+00     2.324     0.488 -29.14 -29.14  +0.00  +0.00  +0.00
       338     306.3777       91.067     507.5334      11.2139    175.0572    298.4626   7.3621792e-01   4.2619446e-01  -2.3221625e-01     1.606     1.136  71.58  71.58  +0.00  +0.00  +0.00
       339     145.7988      51.2998     506.8408      11.2139    437.3822    299.4321   2.1640391e+00   9.2560902e+00   6.6967235e+00     1.096     0.307 -21.68 -21.68  +0.00  +0.00  +0.00
       340     113.5683     60.09906     507.6134      11.2139    121.5561    298.6081   2.4386075e+00   4.0803814e+00   5.2476039e+00     1.400     0.408 -36.31 -36.31  +0.00  +0.00  +0.00
       341     34.35901     55.18626     507.3374      11.2139    486.4895    297.8252   1.1761521e+00   9.0111476e-01   4.7594467e-01     1.144     0.873 -60.01 -60.01  +0.00  +0.00  +0.00
       342     111.3935     55.74183     507.1815      11.2139    390.0129    297.5272   3.4209752e+00   1.1688482e+00   1.1720217e+00     0.987     0.530 -76.25 -76.25  +0.00  +0.00  +0.00
       343     84.25058     45.60071     507.5629      11.2139    256.4325    297.9377   7.5626340e+00   4.0188451e+00  -7.4885311e+00     0.779     0.317  57.66  57.66  +0.00  +0.00  +0.00
       344     234.8568     68.66542     507.6154      11.2139    139.6572    298.0327   1.2564017e+00   2.6225264e+00   1.8231671e+00     1.118     0.570 -26.58 -26.58  +0.00  +0.00  +0.00
       345     461.6999     109.2634     507.6149      11.2139     73.9457    294.6470   4.9435169e-01   6.6035527e-01  -6.3670200e-01     2.007     1.050  37.69  37.69  +0.00  +0.00  +0.00
       346     125.0359     55.83964     507.0208      11.2139    412.0778    301.5376   1.0115331e+00   4.1127753e+00   6.0342550e-01     1.009     0.491  -5.51  -5.51  +0.00  +0.00  +0.00
       347     200.9083     75.45723     507.6042      11.2139    247.4124    294.0406   1.9936744e+00   1.8499367e+00   3.2932005e+00     1.912     0.529 -46.25 -46.25  +0.00  +0.00  +0.00
       348      464.016     118.1202     507.6544      11.2139    230.7247    295.7429   1.0903733e+00   1.0629429e+00   7.6319748e-01     1.200     0.828 -46.03 -46.03  +0.00  +0.00  +0.00
       349     145.2357     46.13256     508.2375      11.2139      2.1192    296.4272   4.0562320e+00   8.7585392e+00   8.7064190e+00     0.828     0.297 -30.81 -30.81  +0.00  +0.00  +0.00
       350     71.72873     45.49073     506.8405      11.2139    437.4843    295.4542   4.0051470e+00   4.0350065e+00  -1.3877676e-01     0.503     0.494  38.93  38.93  +0.00  +0.00  +0.00
       351     128.8742     45.99047     507.0079      11.2139    453.0335    293.2179   2.2164156e+00   5.8714604e+00   1.9018541e-01     0.672     0.413  -1.49  -1.49  +0.00  +0.00  +0.00
       352     141.3072     55.95607     507.6346      11.2139    239.1261    293.3576   1.2034340e+00   5.5192275e+00   2.3690641e+00     1.054     0.414 -14.38 -14.38  +0.00  +0.00  +0.00
       353     89.08624     55.58152     507.5432      11.2139    268.0004    292.0004   2.0856712e+00   3.4983952e+00   4.0082941e+00     1.224     0.451 -35.29 -35.29  +0.00  +0.00  +0.00
       354     297.2297      82.3217     507.5472      11.2139    269.7817    288.6859   1.2242163e+00   1.7179813e+00  -5.6855738e-02     0.904     0.763   3.28   3.28  +0.00  +0.00  +0.00
       355     213.4658      68.5407     507.3889      11.2139    301.2567    290.4806   2.4930317e+00   1.5449584e+00   2.8153169e+00     1.369     0.534 -54.31 -54.31  +0.00  +0.00  +0.00
       356     498.1263     104.6978     507.4066      11.2139    297.9841    288.7764   1.3269486e+00   1.0042793e+00   1.7548521e+00     1.912     0.697 -50.21 -50.21  +0.00  +0.00  +0.00
       357     233.4745     96.12954     507.6308      11.2139    161.9753    290.4691   5.9068495e-01   1.0099714e+00   1.7131719e-01     1.320     0.987 -11.11 -11.11  +0.00  +0.00  +0.00
       358     144.1245     60.30209     506.9445      11.2139    446.6440    289.5721   1.0306839e+00   1.3967345e+00   3.3734024e-01     1.018     0.827 -21.33 -21.33  +0.00  +0.00  +0.00
       359     131.7138     71.66193     507.6508      11.2139    156.8026    289.8745   1.0587962e+00   1.3300824e+00  -9.7727752e-01     1.206     0.767  37.24  37.24  +0.00  +0.00  +0.00
       360     367.3733     108.9176     507.5902      11.2139     61.5436    289.0228   2.1638025e-01   9.1085219e-01   4.8068751e-02     2.154     1.047  -1.98  -1.98  +0.00  +0.00  +0.00
       361     143.0814     55.96875     507.0797      11.2139    460.2219    289.3252   1.1320904e+00   5.8779850e+00   2.4456184e+00     1.094     0.402 -13.63 -13.63  +0.00  +0.00  +0.00
       362     268.9877     75.81725     507.7018      11.2139    227.5927    289.0844   2.4590464e+00   2.8898661e+00   3.6789017e+00     1.103     0.470 -41.66 -41.66  +0.00  +0.00  +0.00
       363     114.8217     45.86809     507.6781      11.2139     36.4473    289.4812   4.0497398e+00   4.0104489e+00  -2.7911428e-01     0.507     0.490  49.01  49.01  +0.00  +0.00  +0.00
       364     82.77872      45.5878     506.9959      11.2139    451.9543    287.4395   4.0064425e+00   7.8512421e+00  -7.7952609e+00     0.795     0.312  31.87  31.87  +0.00  +0.00  +0.00
       365     204.4329     60.70081     507.6602      11.2139    236.8052    287.6520   6.4744502e-01   4.8085556e+00  -1.2707435e+00     1.345     0.452   8.49   8.49  +0.00  +0.00  +0.00
       366     102.6684     45.76198      507.476      11.2139     60.4859    296.5244   4.0034599e+00   4.0098419e+00   6.4062536e-02     0.502     0.498 -42.16 -42.16  +0.00  +0.00  +0.00
       367     301.9338     82.34455     508.1747      11.2139      3.2742    286.7247   9.2969358e-01   1.1602869e+00  -8.8920552e-01     1.307     0.815  37.73  37.73  +0.00  +0.00  +0.00
       368     313.5013     85.39839     507.2316      11.2139    382.3529    285.1339   1.6774615e+00   7.5014234e-01   1.5418029e+00     1.784     0.688 -60.51 -60.51  +0.00  +0.00  +0.00
       369     214.9591     78.79111     507.4305      11.2139    499.7235    284.9521   4.1396403e-01   2.2907972e+00   5.3437865e-01     1.629     0.655  -7.95  -7.95  +0.00  +0.00  +0.00
       370     413.5975     99.48109     507.2245      11.2139    475.9139    284.5682   1.0923747e+00   2.6444657e+00   2.5453784e+00     1.627     0.546 -29.31 -29.31  +0.00  +0.00  +0.00
       371     64.73288     50.66376     507.6998      11.2139    189.9870    284.4114   4.9310341e+00   4.2316995e+00   7.9206753e+00     1.285     0.342 -47.52 -47.52  +0.00  +0.00  +0.00
       372     243.1601     85.06828     506.9225      11.2139    421.1710    283.4983   6.2105072e-01   1.3438993e+00   4.4591345e-02     1.270     0.862  -1.77  -1.77  +0.00  +0.00  +0.00
       373     74.54031     45.51545     507.7321      11.2139    202.0029    291.0601   2.8086517e+00   2.5137179e+00  -2.4959974e+00     0.844     0.505  48.37  48.37  +0.00  +0.00  +0.00
       374     277.5225     75.86227     507.7588      11.2139    147.9206    283.4908   1.2557695e+00   1.3510967e+00  -1.2932181e+00     1.236     0.716  42.89  42.89  +0.00  +0.00  +0.00
       375     134.4114      46.0386     507.1621      11.2139    395.4940    284.9523   7.3675303e+00   4.0812807e+00   7.4139099e+00     0.774     0.320 -56.95 -56.95  +0.00  +0.00  +0.00
       376     333.0513     88.38287      507.848      11.2139     82.6513    281.7629   2.1055599e-01   2.9190280e+00   9.5882785e-01     2.793     0.577  -9.75  -9.75  +0.00  +0.00  +0.00
       377     135.5751     75.11009      507.693      11.2139     55.6224    275.9922   6.1288655e-01   2.2687948e+00  -1.5102670e+00     1.767     0.625  21.18  21.18  +0.00  +0.00  +0.00
       378     175.9008     81.73003     507.6671      11.2139     61.2954    281.5732   1.7183135e+00   1.4428401e+00   8.0752236e-01     0.931     0.706 -54.42 -54.42  +0.00  +0.00  +0.00
       379    -18.74878     44.85559     507.2966      11.2139    345.4753    279.9365   8.0760088e+00   4.0244646e+00  -8.0906229e+00     0.809     0.308  58.30  58.30  +0.00  +0.00  +0.00
       380     26.68201      45.0929     507.0966      11.2139    404.2182    279.2375   2.0415561e+00   7.6686687e+00  -4.1864324e+00     0.861     0.346  18.32  18.32  +0.00  +0.00  +0.00
       381     102.2784     45.75857     507.6411      11.2139    174.0414    279.7421   2.0307701e+00   5.2311459e+00  -2.2637160e-01     0.702     0.437   2.02   2.02  +0.00  +0.00  +0.00
       382     166.5009     60.45033     507.8422      11.2139    139.1058    278.2527   1.6303542e+00   5.2224960e+00  -4.5247149e+00     1.364     0.398  25.78  25.78  +0.00  +0.00  +0.00
       383     140.0883     60.27531     507.0344      11.2139    456.2464    277.4670   1.0725082e+00   4.1425285e+00   7.3235720e-01     0.986     0.489  -6.71  -6.71  +0.00  +0.00  +0.00
       384     73.58832     45.50708      507.075      11.2139    405.7168    276.2756   2.0607603e+00   7.0262494e+00   4.0782480e+00     0.867     0.359 -19.70 -19.70  +0.00  +0.00  +0.00
       385     74.12094     50.73782     507.3181      11.2139    352.1771    276.4002   1.8128254e+00   3.9217832e+00  -4.1011486e+00     1.335     0.440  31.39  31.39  +0.00  +0.00  +0.00
       386     133.3818     55.89939       507.53      11.2139    282.2145    276.3420   2.2741973e+00   2.0001216e+00   2.8058329e-01     0.718     0.655 -67.16 -67.16  +0.00  +0.00  +0.00
       387     149.3924     46.16858     507.6708      11.2139    172.9988    275.5474   4.0714636e+00   7.3682022e+00   7.3663116e+00     0.770     0.320 -32.94 -32.94  +0.00  +0.00  +0.00
       388     375.3001     79.60095     507.7626      11.2139     36.5133    274.5340   5.6164652e-01   2.9528449e+00   1.5255841e+00     1.717     0.561 -16.27 -16.27  +0.00  +0.00  +0.00
       389     293.8235     91.01184     507.7975      11.2139    226.3960    272.1219   7.2662413e-01   2.4991531e+00   8.5497969e-01     1.261     0.621 -12.88 -12.88  +0.00  +0.00  +0.00
       390     118.0149      51.0827     507.9077      11.2139    211.7397    273.5880   2.1056278e+00   4.5092254e+00  -1.7919446e+00     0.744     0.456  18.35  18.35  +0.00  +0.00  +0.00
       391     242.1834     87.97066     507.6997      11.2139     45.2902    272.5648   1.3511337e+00   1.1027318e+00   7.8975111e-01     1.109     0.781 -53.73 -53.73  +0.00  +0.00  +0.00
       392     334.7371     96.54998     508.0469      11.2139      8.8703    272.9494   9.6004379e-01   3.7925210e+00   2.9656119e+00     1.752     0.475 -23.16 -23.16  +0.00  +0.00  +0.00
       393     90.58813     55.59232     506.8598      11.2139    426.8079    272.5004   9.0627944e-01   4.1133761e+00   6.4108557e-01     1.069     0.491  -5.65  -5.65  +0.00  +0.00  +0.00
       394     280.1616     82.23872     506.9341      11.2139    420.0470    271.4656   4.0027757e+00   4.8640790e+00   8.0342846e+00     1.595     0.344 -41.94 -41.94  +0.00  +0.00  +0.00
       395     227.8443     68.62456     507.3279      11.2139    500.2467    270.4546   1.3272647e+00   1.8278748e+00   9.1832107e-01     0.974     0.690 -30.70 -30.70  +0.00  +0.00  +0.00
       396     182.4237     51.58458     507.8754      11.2139    145.7702    271.4065   2.0821409e+00   4.6817508e+00   2.1143217e+00     0.766     0.445 -19.56 -19.56  +0.00  +0.00  +0.00
       397     95.84338     45.70228      507.937      11.2139    125.4588    271.7673   8.3125567e-01   6.0141273e+00   1.1725538e+00     1.143     0.406  -6.37  -6.37  +0.00  +0.00  +0.00
       398     311.1471     88.28368     507.9893      11.2139     97.2721    270.3903   6.7477757e-01   1.1623740e+00   2.4553257e-01     1.245     0.916 -13.36 -13.36  +0.00  +0.00  +0.00
       399     146.5009     55.99319     507.8312      11.2139     32.4840    271.6940   1.0638721e+00   4.7093196e+00   2.2710295e-02     0.970     0.461  -0.18  -0.18  +0.00  +0.00  +0.00
       400     68.51154     45.46244     507.6048      11.2139    268.5332    270.5113   4.0203609e+00   4.0047016e+00   2.0674489e-01     0.506     0.493 -47.17 -47.17  +0.00  +0.00  +0.00
       401     133.8013     51.20616     507.3306      11.2139    338.8439    273.4099   2.0474143e+00   4.6886172e+00   2.1307001e+00     0.774     0.444 -19.45 -19.45  +0.00  +0.00  +0.00
       402     391.8964     76.46295     507.9081      11.2139    207.8108    269.9611   1.4460374e+00   1.2946383e+00  -8.6970770e-01     1.038     0.743  49.94  49.94  +0.00  +0.00  +0.00
       403     266.0057     79.04984     507.8481      11.2139    203.1575    266.5533   1.3315034e+00   7.8070045e-01  -8.4107256e-01     1.344     0.801  61.61  61.61  +0.00  +0.00  +0.00
       404     107.7073     51.00192     507.0428      11.2139    456.8486    268.9850   2.1288078e+00   3.2813487e+00   2.0682409e+00     0.811     0.507 -30.44 -30.44  +0.00  +0.00  +0.00
       405     214.9838     72.12521     507.1372      11.2139    399.1779    268.9781   3.2510993e+00   2.4228382e+00   3.2460618e+00     0.928     0.471 -52.16 -52.16  +0.00  +0.00  +0.00
       406     210.4848     68.52329     508.0169      11.2139     78.4519    266.6494   1.0218703e+00   2.5399773e+00   3.1638426e-01     0.997     0.625  -5.89  -5.89  +0.00  +0.00  +0.00
       407     127.2747     55.85567     507.8013      11.2139     55.9493    265.8609   2.2262688e+00   3.2750003e+00   3.0679657e+00     0.941     0.478 -35.56 -35.56  +0.00  +0.00  +0.00
       408     223.2518     75.57558     507.6861      11.2139    180.9933    264.7580   8.8582861e-01   4.5301409e+00  -2.6873851e-01     1.065     0.470   2.11   2.11  +0.00  +0.00  +0.00
       409     86.66397     45.62187     507.9616      11.2139    115.9021    264.2076   1.9149493e+00   6.1085281e+00  -4.7338539e-01     0.725     0.404   3.22   3.22  +0.00  +0.00  +0.00
       410     93.63766     59.96626     508.0611      11.2139     87.7215    263.8764   1.2841582e+00   3.1798208e+00   2.0598609e+00     1.096     0.525 -23.69 -23.69  +0.00  +0.00  +0.00
       411     499.3456      120.348      507.991      11.2139     19.3183    261.2710   1.0715756e+00   2.1099484e-01   5.3368998e-01     2.722     0.933 -74.10 -74.10  +0.00  +0.00  +0.00
       412     190.0215     75.39949     508.0108      11.2139     17.6461    256.7208   9.4680524e-01   1.6151830e+00   8.1398565e-01     1.151     0.744 -25.30 -25.30  +0.00  +0.00  +0.00
       413     162.7947      60.4258     507.1668      11.2139    493.7027    263.2910   1.8249117e+00   3.5238552e+00   3.2107072e+00     1.079     0.472 -31.06 -31.06  +0.00  +0.00  +0.00
       414     159.2719     75.23619     508.0695      11.2139     77.1790    262.0125   1.0134579e+00   1.3109258e+00  -1.4056737e+00     1.501     0.729  39.03  39.03  +0.00  +0.00  +0.00
       415     46.03802     45.26427     507.9069      11.2139    136.1900    262.7743   1.9525025e+00   7.8594894e+00   4.0850515e+00     0.872     0.343 -17.33 -17.33  +0.00  +0.00  +0.00
       416     208.9463     72.09173     507.8026      11.2139    200.7486    261.6546   2.0453775e+00   4.7441344e+00  -1.6217494e+00     0.741     0.449  15.50  15.50  +0.00  +0.00  +0.00
       417     371.3391     88.55598     507.0145      11.2139    413.3976    259.8594   6.1388886e-01   1.4722468e+00  -5.9961721e-02     1.277     0.824   2.00   2.00  +0.00  +0.00  +0.00
       418     20.47714     45.03783     507.1586      11.2139    394.5389    260.5258   4.0496058e+00   4.0358415e+00  -6.3847822e-01     0.518     0.479  45.62  45.62  +0.00  +0.00  +0.00
       419     510.8582     109.4432     507.7261      11.2139    190.2114    259.2127   1.2141606e+00   1.2046002e+00  -1.4299556e+00     1.422     0.721  45.19  45.19  +0.00  +0.00  +0.00
       420     315.2633     79.29869     507.2221      11.2139    383.1891    257.8124   2.2948804e+00   2.5165267e+00   1.3470014e+00     0.762     0.569 -40.33 -40.33  +0.00  +0.00  +0.00
       421     153.4113     60.36366     507.8905      11.2139    142.0931    258.9493   1.4953293e+00   8.5283995e-01  -1.2457619e+00     1.454     0.730  58.64  58.64  +0.00  +0.00  +0.00
       422     89.69226     59.93994     508.0209      11.2139    104.3258    258.6582   1.2496104e+00   1.5936438e+00  -1.6434434e-01     0.901     0.788  12.77  12.77  +0.00  +0.00  +0.00
       423     485.6905     99.72796      508.065      11.2139     69.6294    256.3008   1.8164166e+00   1.9161544e+00   2.3622398e+00     1.209     0.573 -43.79 -43.79  +0.00  +0.00  +0.00
       424     188.0386     71.97563     507.9692      11.2139     26.8018    254.2224   3.4418175e+00   2.0524943e+00   3.6099524e+00     1.109     0.462 -55.52 -55.52  +0.00  +0.00  +0.00
       425     236.8313     72.24628     508.0674      11.2139      9.4609    257.0000   3.9907828e-01   2.2485077e+00   3.8512313e-01     1.624     0.664  -5.88  -5.88  +0.00  +0.00  +0.00
       426      341.963     93.93973     508.0935      11.2139      4.9564    255.0000   2.3976578e-01   2.2726562e+00   3.0276334e-01     2.092     0.662  -4.24  -4.24  +0.00  +0.00  +0.00
       427     115.2477     64.15797     507.9165      11.2139     33.8010    255.9783   1.3027694e+00   2.4569685e+00   1.4980906e+00     1.035     0.595 -26.19 -26.19  +0.00  +0.00  +0.00
       428     306.8892     76.01695     507.0289      11.2139    492.1781    255.2804   4.1530219e-01   3.0746973e+00  -9.0002632e-01     1.712     0.564   9.35   9.35  +0.00  +0.00  +0.00
       429     801.2167     135.0784     508.1086      11.2139     94.5785    253.6403   7.3240173e-01   9.3503922e-01  -9.0965438e-01     1.649     0.877  38.72  38.72  +0.00  +0.00  +0.00
       430     237.2644     72.24868     507.0486      11.2139    457.6306    254.1976   1.9620701e+00   2.2858424e+00  -4.1725165e-01     0.733     0.647  26.09  26.09  +0.00  +0.00  +0.00
       431     236.2127     85.03561     507.6585      11.2139    242.7353    252.7990   1.1533890e+00   1.7722017e+00  -8.7080419e-02     0.932     0.751   4.01   4.01  +0.00  +0.00  +0.00
       432     122.0569     45.93114     507.8187      11.2139    154.0111    253.5067   4.0133295e+00   7.6584473e+00   7.6628065e+00     0.792     0.315 -32.28 -32.28  +0.00  +0.00  +0.00
       433     116.8392     51.07349     507.4736      11.2139    289.7852    251.9674   2.8906035e+00   7.0861831e+00   7.9025335e+00     1.394     0.325 -31.02 -31.02  +0.00  +0.00  +0.00
       434     149.4848      56.0145     507.4433      11.2139    293.6698    250.2995   2.3156867e+00   2.4708025e+00   1.4567840e+00     0.776     0.566 -41.96 -41.96  +0.00  +0.00  +0.00
       435     147.5869     68.15514     507.9288      11.2139     43.4902    248.4881   3.1746700e+00   2.2299793e+00   4.7101336e+00     1.825     0.443 -50.67 -50.67  +0.00  +0.00  +0.00
       436     541.8648     114.0554     507.6768      11.2139    174.0409    250.8993   7.0521337e-01   9.0195465e-01  -1.0227741e+00     1.880     0.869  39.56  39.56  +0.00  +0.00  +0.00
       437     86.22104     45.61799     507.8611      11.2139    148.2274    253.9885   5.6915984e+00   2.2848039e+00  -6.7993715e-02     0.662     0.419  89.43  89.43  +0.00  +0.00  +0.00
       438     71.45193      45.4883     506.8877      11.2139    436.5771    249.2460   8.6683744e-01   5.8990426e+00   1.3269132e+00     1.132     0.409  -7.39  -7.39  +0.00  +0.00  +0.00
       439     75.85654     59.84753     507.3426      11.2139    322.6044    248.8652   1.2023854e+00   3.9481561e+00   2.7547812e+00     1.259     0.470 -22.55 -22.55  +0.00  +0.00  +0.00
       440     72.30936     45.49584     508.0385      11.2139     61.4963    249.4551   4.0002818e+00   4.0325871e+00   3.3018570e-02     0.500     0.498 -22.81 -22.81  +0.00  +0.00  +0.00
       441     221.3063     64.81584      507.885      11.2139    144.2332    247.8597   1.7930936e+00   2.8197303e+00   2.6583004e+00     1.065     0.518 -34.44 -34.44  +0.00  +0.00  +0.00
       442     128.2927     45.98541     506.9571      11.2139    445.9902    247.5116   4.0218453e+00   8.6380711e+00   8.6359768e+00     0.835     0.298 -30.94 -30.94  +0.00  +0.00  +0.00
       443     167.2942     68.27071     506.9215      11.2139    425.6759    246.2360   1.9141659e+00   2.5462751e+00   3.2101564e+00     1.297     0.509 -39.43 -39.43  +0.00  +0.00  +0.00
       444     82.86301     45.58854     508.0465      11.2139    105.6904    245.9919   4.6785851e+00   2.3708913e+00   5.5419195e-02     0.649     0.462 -89.31 -89.31  +0.00  +0.00  +0.00
       445     413.8239     88.74767     508.3212      11.2139     77.8217    242.8414   1.2923278e+00   1.7904760e+00  -1.3782961e+00     1.112     0.663  35.06  35.06  +0.00  +0.00  +0.00
       446     358.8603     104.1644     507.9881      11.2139     34.4259    245.4742   4.8416147e-01   1.4155157e+00  -4.7384817e-02     1.438     0.840   1.46   1.46  +0.00  +0.00  +0.00
       447     490.8521     102.2389     507.7539      11.2139    163.1586    244.6500   8.4354198e-01   1.0951806e+00  -7.1019703e-01     1.299     0.862  35.24  35.24  +0.00  +0.00  +0.00
       448     278.5191     108.5908     507.7963      11.2139    156.9881    241.2308   4.8457608e-01   5.1562911e-01  -1.0735866e-01     1.500     1.341  36.93  36.93  +0.00  +0.00  +0.00
       449     149.9385     46.17331     507.1465      11.2139    395.5230    241.9527   8.2872114e+00   4.0137005e+00   8.2881908e+00     0.820     0.304 -58.64 -58.64  +0.00  +0.00  +0.00
       450     141.7567     55.95928     507.3367      11.2139    323.5344    242.0021   4.0229468e+00   1.5516011e+00   1.5551126e-01     0.803     0.498 -88.20 -88.20  +0.00  +0.00  +0.00
       451     57.63614     45.36665     507.6095      11.2139    265.4696    242.5354   8.5190117e-01   4.0354767e+00   2.2874805e-01     1.086     0.498  -2.05  -2.05  +0.00  +0.00  +0.00
       452     356.0176     93.99955     507.2497      11.2139    371.9720    240.2656   1.0270113e+00   9.4804877e-01  -1.0834875e+00     1.500     0.808  47.08  47.08  +0.00  +0.00  +0.00
       453      541.964       116.24     508.2722      11.2139     71.5947    240.2008   3.9963898e-01   8.9956677e-01  -2.0144505e-02     1.582     1.054   1.15   1.15  +0.00  +0.00  +0.00
       454     255.0806     75.74385     508.0721      11.2139     24.6850    239.0132   1.0206127e+00   1.7852908e+00   4.7694346e-01     1.025     0.735 -15.98 -15.98  +0.00  +0.00  +0.00
       455     154.8917     71.79118     507.8502      11.2139    150.9319    237.3844   8.1489015e-01   1.9055399e+00   7.7121007e-01     1.202     0.702 -17.63 -17.63  +0.00  +0.00  +0.00
       456     89.04437     50.85534     507.5274      11.2139    283.1558    235.7600   4.5927639e+00   4.7847371e+00  -7.3672309e+00     0.998     0.346  44.25  44.25  +0.00  +0.00  +0.00
       457     138.3501     64.30185     508.1882      11.2139     63.3020    235.7229   1.1275879e+00   2.4699812e+00  -2.2076347e-01     0.946     0.635   4.67   4.67  +0.00  +0.00  +0.00
       458     95.84863     71.46146      507.255      11.2139    372.7493    235.1966   9.2259794e-01   2.0469804e+00   7.9829329e-01     1.121     0.678 -17.69 -17.69  +0.00  +0.00  +0.00
       459     74.11948     45.51175     506.9465      11.2139    444.4729    233.9861   7.7764459e+00   4.0315881e+00   7.7916956e+00     0.795     0.313 -57.83 -57.83  +0.00  +0.00  +0.00
       460     398.3635     94.17958     507.8889      11.2139    145.8259    234.4099   5.7534415e-01   2.6203516e+00  -2.5542644e-01     1.328     0.617   3.56   3.56  +0.00  +0.00  +0.00
       461     168.8344     60.46577     507.2948      11.2139    359.1783    232.4354   2.4816124e+00   1.3554078e+00  -5.6561267e-01     0.881     0.626  76.67  76.67  +0.00  +0.00  +0.00
       462     125.7058     60.17979     507.8192      11.2139    158.2933    233.1558   1.2550836e+00   4.2432094e+00   2.8447869e+00     1.207     0.456 -21.80 -21.80  +0.00  +0.00  +0.00
       463     151.1721     60.34882     507.7281      11.2139    198.4719    231.5992   1.3626889e+00   2.0180864e+00   5.0381529e-01     0.885     0.689 -18.78 -18.78  +0.00  +0.00  +0.00
       464     147.2072     60.32253      507.759      11.2139    169.0113    232.2419   1.9171358e+00   2.0287607e+00  -1.4462216e-01     0.729     0.696  26.17  26.17  +0.00  +0.00  +0.00
       465     116.2768     60.11708     507.3217      11.2139    340.5568    231.3141   1.6838331e+00   2.7490432e+00   2.1577768e+00     0.993     0.541 -31.86 -31.86  +0.00  +0.00  +0.00
       466     143.8343     71.72955     507.3071      11.2139    353.0147    229.4855   7.2973132e-01   1.2469314e+00  -8.6215824e-01     1.435     0.819  29.52  29.52  +0.00  +0.00  +0.00
       467     444.7893     115.9051     506.7679      11.2139    494.0431    233.4043   3.4069934e-01   6.9070828e-01  -2.6480222e-01     1.837     1.166  18.55  18.55  +0.00  +0.00  +0.00
       468     220.3245     60.80544     507.1039      11.2139    404.0322    226.9810   1.1995065e+00   1.8247136e+00  -2.1109698e+00     1.559     0.619  36.75  36.75  +0.00  +0.00  +0.00
       469     255.2562     68.78415     507.2547      11.2139    375.9466    227.2888   1.7541656e+00   2.8228817e+00   3.4039016e+00     1.408     0.496 -36.28 -36.28  +0.00  +0.00  +0.00
       470     109.7403     60.07357     507.2775      11.2139    371.8253    226.3864   1.6181270e+00   1.9839457e+00   9.4668239e-01     0.879     0.658 -34.44 -34.44  +0.00  +0.00  +0.00
       471     137.7946     68.09765     508.1541      11.2139     50.8902    227.6709   8.8656729e-01   2.0666828e+00  -4.1330913e-01     1.084     0.690   9.65   9.65  +0.00  +0.00  +0.00
       472     567.4491     130.5877     508.2198      11.2139     42.7428    224.4103   1.9324018e-01   9.9683291e-01  -2.3922835e-01     2.385     0.993   8.29   8.29  +0.00  +0.00  +0.00
       473      219.848     75.55756        507.5      11.2139    288.4484    226.9094   5.4047817e-01   3.1238046e+00  -1.3946618e+00     1.657     0.550  14.18  14.18  +0.00  +0.00  +0.00
       474     597.8525     124.7736     507.4411      11.2139    294.9229    223.5852   8.2884556e-01   7.9079050e-01   1.0639896e+00     1.898     0.863 -46.02 -46.02  +0.00  +0.00  +0.00
       475     112.3116     45.84619      507.661      11.2139    262.0013    227.4709   4.0125012e+00   8.0579052e+00   8.0567350e+00     0.809     0.308 -31.67 -31.67  +0.00  +0.00  +0.00
       476     204.0791     60.69848     508.2647      11.2139     24.3100    226.5941   5.5318689e-01   4.1620736e+00   1.8370616e-01     1.347     0.490  -1.46  -1.46  +0.00  +0.00  +0.00
       477     218.8071     72.14642     508.2282      11.2139     95.4115    221.9890   1.1516939e+00   1.3782398e+00  -1.0314778e+00     1.165     0.747  38.81  38.81  +0.00  +0.00  +0.00
       478     201.9876     60.68469     508.0821      11.2139    108.2883    222.4013   1.1387398e+00   4.4325213e+00   1.1097299e+00     0.977     0.470  -9.31  -9.31  +0.00  +0.00  +0.00
       479     135.3869      68.0835     506.9384      11.2139    444.2812    221.0835   1.2046158e+00   3.8110232e+00   3.0842848e+00     1.430     0.470 -24.90 -24.90  +0.00  +0.00  +0.00
       480     98.11761     55.64648     507.0312      11.2139    415.0212    221.4702   1.5361439e+00   4.0194302e+00   1.7862500e-01     0.808     0.499  -2.06  -2.06  +0.00  +0.00  +0.00
       481     177.3951     56.21345     507.3272      11.2139    339.4837    221.3425   1.2832602e+00   4.4462600e+00   1.7389373e-01     0.884     0.474  -1.57  -1.57  +0.00  +0.00  +0.00
       482     204.7625     60.70298     507.7989      11.2139    197.5902    221.3386   1.5832971e+00   2.8940809e+00   2.1596153e+00     1.012     0.534 -29.37 -29.37  +0.00  +0.00  +0.00
       483     308.0359     93.79516     508.0005      11.2139    121.5026    219.8270   3.1501150e-01   9.1377580e-01  -1.0442507e-01     1.795     1.044   4.95   4.95  +0.00  +0.00  +0.00
       484     300.4449     82.33732     508.0235      11.2139    117.1796    218.0565   1.3286366e+00   5.1731795e-01   4.2829257e-02     1.391     0.867 -88.49 -88.49  +0.00  +0.00  +0.00
       485     199.5019     72.03931     506.8448      11.2139    482.6412    219.2072   1.4110408e+00   1.7685994e+00   1.7042526e+00     1.179     0.638 -39.08 -39.08  +0.00  +0.00  +0.00
       486     208.3956      75.4969     507.5584      11.2139    283.2801    219.0316   1.1073490e+00   4.4773188e+00   2.2867434e+00     1.150     0.455 -17.08 -17.08  +0.00  +0.00  +0.00
       487     351.4343     93.98005     508.3515      11.2139     34.2501    218.2809   5.2346331e-01   1.2408808e+00  -5.1148063e-01     1.505     0.869  17.74  17.74  +0.00  +0.00  +0.00
       488      243.098     82.05825     507.6974      11.2139    260.8725    217.2883   2.5759671e+00   1.5377665e+00  -2.1950216e+00     1.089     0.553  57.66  57.66  +0.00  +0.00  +0.00
       489     149.7289     60.33925     507.3314      11.2139    333.9090    217.0144   2.5060482e+00   2.4456928e+00  -2.5011439e+00     0.904     0.518  45.69  45.69  +0.00  +0.00  +0.00
       490     507.4044      116.121     508.0706      11.2139    110.6862    213.8032   8.0615455e-01   1.1498071e+00  -1.4300245e+00     2.030     0.764  38.24  38.24  +0.00  +0.00  +0.00
       491     122.3263     45.93348     507.1851      11.2139    391.4851    215.4982   4.0218868e+00   4.0183544e+00  -5.4260927e-01     0.516     0.483  45.19  45.19  +0.00  +0.00  +0.00
       492     111.8502      55.7451     506.9397      11.2139    448.0229    214.5429   2.2121630e+00   2.6115475e+00  -2.7075973e+00     0.979     0.514  40.80  40.80  +0.00  +0.00  +0.00
       493     123.0797     45.94004     508.1755      11.2139    100.9875    214.4829   4.0195656e+00   7.7321820e+00   7.7415676e+00     0.795     0.314 -32.19 -32.19  +0.00  +0.00  +0.00
       494     40.31604     45.21368     506.9555      11.2139    428.2409    213.2294   7.6207261e+00   2.0881443e+00  -4.2393355e+00     0.855     0.346  71.27  71.27  +0.00  +0.00  +0.00
       495     105.1309      45.7835     507.3903      11.2139    301.4494    214.0000   7.5484073e-01   1.2000005e+01  -0.0000000e+00     1.151     0.289   0.00   0.00  +0.00  +0.00  +0.00
       496      155.219     60.37563     507.6587      11.2139    273.6982    212.9933   2.1933875e+00   1.6842960e+00  -3.4792158e-01     0.783     0.667  72.83  72.83  +0.00  +0.00  +0.00
       497     229.4036     60.86514     507.7744      11.2139    242.5182    213.3238   1.7607920e+00   2.8688738e+00   2.0704787e+00     0.936     0.535 -30.92 -30.92  +0.00  +0.00  +0.00
       498     276.9045     82.22288     507.8557      11.2139    170.7467    212.8144   1.0118952e+00   1.1713659e+00  -8.5807604e-01     1.235     0.809  39.74  39.74  +0.00  +0.00  +0.00
       499     182.6445     60.55706     508.4271      11.2139     35.8460    212.3618   2.9876716e+00   1.0238580e+00   1.1639020e+00     1.076     0.564 -74.67 -74.67  +0.00  +0.00  +0.00
       500      288.233     72.53031     508.5015      11.2139     23.5093    211.9702   1.5835245e+00   1.3463981e+00  -1.0642086e+00     1.043     0.705  51.28  51.28  +0.00  +0.00  +0.00
       501     463.8563     118.1196     508.5587      11.2139     19.7163    209.7870   4.5962635e-01   9.3413937e-01   1.4524537e-01     1.493     1.029  -8.51  -8.51  +0.00  +0.00  +0.00
       502     239.3275      72.2601     507.3386      11.2139    323.7957    212.2863   7.4131936e-01   2.5453656e+00   5.9208173e-01     1.200     0.621  -9.08  -9.08  +0.00  +0.00  +0.00
       503     85.96106     50.83108     508.3851      11.2139     79.5083    210.0257   8.1191320e+00   4.4742661e+00  -1.0724994e+01     1.257     0.289  54.39  54.39  +0.00  +0.00  +0.00
       504     343.4328     101.6605     508.3982      11.2139     45.3635    209.8407   3.1945547e-01   1.0399050e+00   6.2729263e-01     2.225     0.930 -20.52 -20.52  +0.00  +0.00  +0.00
       505     330.5759     76.14149     506.7136      11.2139    504.8997    208.3900   1.1226739e+00   1.7205018e+00   1.9843702e+00     1.611     0.638 -36.62 -36.62  +0.00  +0.00  +0.00
       506     101.3299     67.88312     506.7614      11.2139    510.1021    204.7251   1.7729429e+00   1.0522028e+00   5.8389533e-01     1.027     0.730 -70.49 -70.49  +0.00  +0.00  +0.00
       507     80.38455     55.51886     507.2115      11.2139    387.8109    208.4120   2.4834952e+00   9.0125561e-01   9.6017098e-01     1.142     0.618 -74.37 -74.37  +0.00  +0.00  +0.00
       508     124.0862     51.13022     507.5664      11.2139    284.3813    208.7800   4.6422400e+00   2.0013318e+00   1.7971383e+00     0.761     0.451 -72.88 -72.88  +0.00  +0.00  +0.00
       509     320.4251     91.12868     506.9437      11.2139    440.3386    207.4676   1.2279888e+00   1.9723425e+00   2.2931552e+00     1.592     0.597 -36.01 -36.01  +0.00  +0.00  +0.00
       510     330.2767     91.17191     506.9108      11.2139    477.7275    203.7358   1.1377507e+00   1.6864583e+00   4.1044220e-02     0.938     0.770  -2.14  -2.14  +0.00  +0.00  +0.00
       511     365.1638     104.1886     507.3488      11.2139    313.2477    206.5156   6.3646340e-01   6.6342032e-01  -6.1018461e-01     1.704     1.023  43.74  43.74  +0.00  +0.00  +0.00
       512     425.6771     91.58951     507.3564      11.2139    307.9099    203.8187   9.5656854e-01   1.1823485e+00  -7.5333852e-01     1.216     0.827  36.66  36.66  +0.00  +0.00  +0.00
       513      122.242     55.81962     507.3352      11.2139    354.5050    206.2103   1.3355153e+00   2.4629924e+00   1.2066612e+00     0.965     0.606 -23.47 -23.47  +0.00  +0.00  +0.00
       514     107.8638     45.80737     507.7626      11.2139    253.4493    206.4753   4.0592747e+00   4.0273490e+00   5.3380501e-01     0.515     0.482 -46.71 -46.71  +0.00  +0.00  +0.00
       515     631.4515     128.8462     508.6273      11.2139     12.4753    205.3214   4.5744342e-01   6.3589579e-01  -3.6818236e-01     1.710     1.154  32.07  32.07  +0.00  +0.00  +0.00
       516     196.9681      60.6516     507.9061      11.2139    160.7989    203.8613   8.0412710e-01   3.1772459e+00   1.2861258e+00     1.249     0.547 -14.23 -14.23  +0.00  +0.00  +0.00
       517     243.4551     82.05999     508.4181      11.2139     57.4206    203.9385   1.4688494e+00   1.8796819e+00   8.4139508e-01     0.911     0.683 -31.99 -31.99  +0.00  +0.00  +0.00
       518     73.91388     45.50995     506.9535      11.2139    468.5135    203.4933   4.0201240e+00   4.0179052e+00   5.2554464e-01     0.516     0.483 -45.12 -45.12  +0.00  +0.00  +0.00
       519     284.6753     79.14425     507.3081      11.2139    373.8840    204.1220   1.6015701e+00   1.0131034e+00   1.4702018e+00     1.393     0.690 -55.91 -55.91  +0.00  +0.00  +0.00
       520     228.9544     64.86302     508.6719      11.2139      3.3080    200.3781   9.9174619e-01   1.6507307e+00  -8.1293947e-01     1.119     0.736  25.49  25.49  +0.00  +0.00  +0.00
       521     1.754242     44.87123     508.5212      11.2139     31.7696    201.7540   4.2711744e+00   4.5525718e+00   7.2627926e+00     1.134     0.353 -43.89 -43.89  +0.00  +0.00  +0.00
       522     117.9615     60.12829     507.8961      11.2139    209.7214    199.6983   2.0522716e+00   8.9063179e-01  -1.7254564e+00     1.522     0.631  61.97  61.97  +0.00  +0.00  +0.00
       523     601.7849     114.2654     508.4702      11.2139     78.2566    195.9839   7.7331251e-01   1.5637708e+00  -1.5763664e+00     1.867     0.698  31.68  31.68  +0.00  +0.00  +0.00
       524     229.6878      68.6353      507.363      11.2139    314.2917    197.1132   1.2824633e+00   2.1681881e+00   7.8679055e-01     0.939     0.657 -20.81 -20.81  +0.00  +0.00  +0.00
       525      285.929     82.26677     507.4707      11.2139    295.7850    196.1775   5.8310819e-01   1.8742207e+00  -1.1156956e+00     1.632     0.693  20.42  20.42  +0.00  +0.00  +0.00
       526     467.1168     118.1307     507.5341      11.2139    290.6656    193.1512   3.1366351e-01   9.0999883e-01  -2.2615655e-01     1.848     1.037  10.38  10.38  +0.00  +0.00  +0.00
       527      204.114     60.69871     508.5988      11.2139     19.0464    194.9893   2.2215455e+00   2.4833708e+00   2.1400139e+00     0.886     0.540 -41.51 -41.51  +0.00  +0.00  +0.00
       528     144.4243     64.33962     507.9811      11.2139    141.4960    193.5793   3.4765060e+00   2.0517306e+00   4.0757222e+00     1.285     0.451 -54.63 -54.63  +0.00  +0.00  +0.00
       529     112.0159      51.0357      507.065      11.2139    489.5922    191.9974   1.6138752e+01   8.3352098e+00   2.2471846e+01     1.708     0.204 -54.58 -54.58  +0.00  +0.00  +0.00
       530     125.4516     55.84261     508.6229      11.2139     12.9768    196.7503   2.4975753e+00   3.3442214e+00   3.4402142e+00     0.933     0.462 -38.09 -38.09  +0.00  +0.00  +0.00
       531     97.41321     50.92112     507.3584      11.2139    345.7928    191.4534   2.1177731e+00   4.4640188e+00   1.9063517e+00     0.750     0.456 -19.55 -19.55  +0.00  +0.00  +0.00
       532     340.1646     93.93208     507.6229      11.2139    284.2436    189.7853   1.1604704e+00   5.1052743e-01   2.0733662e-01     1.422     0.922 -81.15 -81.15  +0.00  +0.00  +0.00
       533     110.7345     45.83243     508.3202      11.2139     98.9883    191.7648   1.8523035e+00   5.5597148e+00   5.6821506e-02     0.735     0.424  -0.44  -0.44  +0.00  +0.00  +0.00
       534     184.1834     64.58633     508.0402      11.2139    133.9839    190.3549   1.0133600e+00   3.1471956e+00   2.0541053e+00     1.292     0.530 -21.95 -21.95  +0.00  +0.00  +0.00
       535     139.9439     51.25412     507.8972      11.2139    193.7591    189.6052   2.0549130e+00   4.4211259e+00  -1.3925416e+00     0.732     0.466  15.24  15.24  +0.00  +0.00  +0.00
       536     114.4272     55.76359     507.8316      11.2139    244.7852    187.8329   2.5894291e+00   2.0811453e+00  -1.3924973e+00     0.792     0.570  55.03  55.03  +0.00  +0.00  +0.00
       537     101.4065     67.88357     507.6825      11.2139    279.9136    186.2502   1.0838864e+00   1.4648272e+00   8.8629985e-01     1.124     0.754 -33.37 -33.37  +0.00  +0.00  +0.00
       538     191.6626     81.80714     507.7985      11.2139    260.2760    186.0977   5.3992087e-01   1.6572548e+00   9.7893500e-01     1.676     0.737 -20.61 -20.61  +0.00  +0.00  +0.00
       539     70.66168     45.48135     507.8057      11.2139    255.6324    186.7057   7.1176343e+00   3.7518206e+00   7.1059356e+00     0.816     0.327 -57.67 -57.67  +0.00  +0.00  +0.00
       540     112.0964     60.08926     508.0894      11.2139    129.2532    186.8652   1.1372960e+00   2.8631036e+00   1.4550036e+00     1.071     0.565 -20.07 -20.07  +0.00  +0.00  +0.00
       541     397.4469      99.3734     507.0901      11.2139    441.5413    184.2485   1.5018899e+00   4.6487078e-01   6.7759967e-01     1.657     0.790 -73.42 -73.42  +0.00  +0.00  +0.00
       542     96.39914     45.70715     508.6125      11.2139     18.2615    185.7447   7.2276320e+00   2.0156817e+00   4.0655794e+00     0.872     0.355 -71.02 -71.02  +0.00  +0.00  +0.00
       543     50.64496     45.30497      507.912      11.2139    213.9796    185.5009   4.0181422e+00   7.6120448e+00  -7.6193585e+00     0.790     0.316  32.37  32.37  +0.00  +0.00  +0.00
       544     92.51736     45.67316     508.5063      11.2139     84.2827    185.7195   2.2414005e+00   7.1824651e+00   4.4694543e+00     0.851     0.353 -21.07 -21.07  +0.00  +0.00  +0.00
       545     102.7913     55.68006     508.6367      11.2139      8.4623    185.0251   2.4746981e+00   1.1503824e+00   1.9687172e+00     1.264     0.577 -61.96 -61.96  +0.00  +0.00  +0.00
       546     139.0292     64.30608     507.2968      11.2139    505.5829    182.5053   1.7498449e+00   2.5060282e+00   2.7033472e+00     1.175     0.532 -37.19 -37.19  +0.00  +0.00  +0.00
       547     140.2832     51.25677      507.246      11.2139    397.1746    183.2098   4.8920465e+00   4.6284585e+00   7.4157066e+00     0.976     0.344 -46.02 -46.02  +0.00  +0.00  +0.00
       548     281.4089     75.88276     507.3708      11.2139    359.7961    182.8016   2.4057078e+00   2.5216908e+00  -1.6089402e+00     0.777     0.553  42.94  42.94  +0.00  +0.00  +0.00
       549     170.0036     64.49846     507.3759      11.2139    328.1232    183.1198   1.8360039e+00   1.9194791e+00   8.1722438e-01     0.826     0.661 -42.08 -42.08  +0.00  +0.00  +0.00
       550     356.5204     94.00169     507.7878      11.2139    270.1179    181.8904   7.4727398e-01   7.5851876e-01  -2.3942569e-01     1.257     1.070  43.66  43.66  +0.00  +0.00  +0.00
       551       143.54     68.13139      507.917      11.2139    162.8571    181.5801   2.1775219e+00   6.8380636e-01   9.4895476e-01     1.354     0.657 -73.79 -73.79  +0.00  +0.00  +0.00
       552     632.8004     124.8856     508.5745      11.2139     51.7508    180.2010   8.6575031e-01   7.3014748e-01  -1.1533797e+00     2.145     0.852  48.35  48.35  +0.00  +0.00  +0.00
       553     33.52786     45.15359     507.2542      11.2139    494.2237    182.1997   8.0738382e+00   2.1785798e+00  -4.4920597e+00     0.839     0.336  71.35  71.35  +0.00  +0.00  +0.00
       554     557.7115      114.111     507.9117      11.2139    196.1004    180.7493   1.6810459e-01   1.4830519e+00  -3.0904853e-01     2.580     0.816   6.61   6.61  +0.00  +0.00  +0.00
       555     161.6741     68.23777     507.3755      11.2139    334.0056    180.7584   2.7800493e+00   9.4296026e-01   9.3962282e-01     1.098     0.588 -76.46 -76.46  +0.00  +0.00  +0.00
       556     328.7528     76.13191     507.8383      11.2139    249.0032    180.8721   2.4828441e+00   1.6095506e+00  -2.0574148e+00     1.038     0.562  56.50  56.50  +0.00  +0.00  +0.00
       557     130.7382     51.18223     507.1148      11.2139    459.7974    179.3955   2.0388553e+00   4.5477314e+00   1.7256782e+00     0.751     0.456 -17.26 -17.26  +0.00  +0.00  +0.00
       558     308.6375     79.26527     508.1452      11.2139    124.6986    181.8359   2.3843799e+00   1.8990115e+00   1.5052269e+00     0.860     0.584 -53.94 -53.94  +0.00  +0.00  +0.00
       559     160.6219     64.44025     507.2777      11.2139    485.2639    177.4750   2.9982228e+00   5.8595457e+00   7.7624249e+00     1.849     0.342 -34.88 -34.88  +0.00  +0.00  +0.00
       560     217.8719      75.5471     507.8057      11.2139    269.0034    175.4584   2.3144131e+00   1.1045450e+00   2.4092500e+00     1.663     0.572 -58.33 -58.33  +0.00  +0.00  +0.00
       561     408.4372     104.3546     507.8199      11.2139    263.2951    177.0501   4.3381432e-01   1.1637193e+00  -7.0489925e-01     1.852     0.875  22.00  22.00  +0.00  +0.00  +0.00
       562     167.5683     56.14349     508.6318      11.2139      8.2105    177.7902   2.4428110e+00   2.4630184e+00   1.4709111e+00     0.763     0.560 -44.61 -44.61  +0.00  +0.00  +0.00
       563     420.5458     111.3938     507.6971      11.2139    281.3090    173.8740   1.7083970e+00   1.2625253e+00   2.6172450e+00     2.516     0.596 -49.83 -49.83  +0.00  +0.00  +0.00
       564     234.5576     75.63539      507.434      11.2139    301.2395    184.8358   1.2059407e+00   1.6469717e+00   1.8476698e+00     1.448     0.649 -38.29 -38.29  +0.00  +0.00  +0.00
       565     85.43219     45.61107      507.912      11.2139    219.6741    176.0108   4.6340003e+00   6.6854115e+00   9.2011805e+00     1.028     0.310 -38.72 -38.72  +0.00  +0.00  +0.00
       566     170.5958     75.29636     507.8862      11.2139    230.4052    175.1731   1.2422674e+00   4.2683764e+00   3.0157135e+00     1.271     0.452 -22.45 -22.45  +0.00  +0.00  +0.00
       567     230.7686     72.21271     508.5963      11.2139     39.8969    173.8788   1.0023254e+00   2.1558793e+00  -9.0242618e-01     1.087     0.658  19.02  19.02  +0.00  +0.00  +0.00
       568     236.3215     52.00084     508.5976      11.2139     33.7481    169.5653   2.3139510e+00   4.5146956e+00  -2.0300384e+00     0.722     0.451  21.34  21.34  +0.00  +0.00  +0.00
       569     407.3376     79.76179      508.603      11.2139     29.1105    167.6876   7.3200262e-01   1.3268013e+00  -9.7419810e-01     1.477     0.791  29.30  29.30  +0.00  +0.00  +0.00
       570     132.5154     87.47058     508.5994      11.2139     35.9597    173.3808   1.0466527e+00   3.3006507e-01   7.0049465e-02     1.745     0.977 -87.21 -87.21  +0.00  +0.00  +0.00
       571     662.6031     116.6544     507.8305      11.2139    251.6674    170.3136   8.9557576e-01   1.1796157e+00  -1.5342119e+00     1.971     0.742  39.76  39.76  +0.00  +0.00  +0.00
       572     114.3891     55.76332     508.4738      11.2139     93.0005    171.8021   2.4371119e+00   3.2327633e+00   3.3087490e+00     0.939     0.470 -38.24 -38.24  +0.00  +0.00  +0.00
       573     174.6213     60.50404      507.313      11.2139    384.6073    171.6912   7.1008062e-01   5.7361569e+00   1.7276069e+00     1.329     0.412  -9.48  -9.48  +0.00  +0.00  +0.00
       574     146.4793      51.3051     507.3944      11.2139    310.7339    171.2257   3.1281912e+00   3.2541611e+00   4.0181475e+00     0.920     0.438 -44.10 -44.10  +0.00  +0.00  +0.00
       575     205.7933     64.72003      507.447      11.2139    300.9568    168.7337   2.1107137e+00   5.1252141e+00   2.4822830e-01     0.689     0.441  -2.35  -2.35  +0.00  +0.00  +0.00
       576     235.1553     68.66715     507.8384      11.2139    242.4933    165.5000   6.6746628e-01   4.1212883e+00   5.6917536e-01     1.246     0.491  -4.68  -4.68  +0.00  +0.00  +0.00
       577     191.7505     68.41385     507.8383      11.2139    239.6772    163.3628   1.6821921e+00   1.0244401e+00  -9.4510341e-01     1.134     0.720  62.42  62.42  +0.00  +0.00  +0.00
       578     137.6529     51.23624     507.9832      11.2139    142.7163    165.5457   2.2023935e+00   8.4693375e+00   6.2510362e+00     1.048     0.320 -22.46 -22.46  +0.00  +0.00  +0.00
       579     98.92947     50.93303     508.0367      11.2139    136.6592    164.9972   1.4778411e+00   4.0488844e+00   2.9417982e+00     1.111     0.460 -24.42 -24.42  +0.00  +0.00  +0.00
       580     306.2285     96.43179     507.8785      11.2139    180.5804    163.2002   6.5256625e-01   1.1559814e+00   7.5447488e-01     1.489     0.858 -28.14 -28.14  +0.00  +0.00  +0.00
       581     39.45212     55.22316     507.1796      11.2139    420.0111    163.1640   1.5570081e+00   2.2064276e+00  -1.2524903e-01     0.803     0.672   5.46   5.46  +0.00  +0.00  +0.00
       582     94.24402     45.68828     507.3118      11.2139    384.3064    163.2540   1.9901187e+00   6.9981341e+00  -3.7008104e+00     0.851     0.363  18.23  18.23  +0.00  +0.00  +0.00
       583     187.5537     60.58948     507.3883      11.2139    322.4889    162.5464   1.3405538e+00   2.1545501e+00   6.5783858e-01     0.904     0.664 -19.47 -19.47  +0.00  +0.00  +0.00
       584     194.2452     72.01011     507.1266      11.2139    461.0573    161.9236   1.5180135e+00   3.6283281e+00   3.5339506e+00     1.393     0.465 -29.58 -29.58  +0.00  +0.00  +0.00
       585     255.9771     75.74858     507.8781      11.2139    225.8047    166.6008   2.6740170e+00   6.7705852e-01   9.9540752e-01     1.336     0.599 -76.75 -76.75  +0.00  +0.00  +0.00
       586     130.2295     60.20985     507.1334      11.2139    445.0847    160.9689   2.4127176e+00   2.4301693e+00   2.4435241e+00     0.913     0.524 -44.80 -44.80  +0.00  +0.00  +0.00
       587     254.2494     82.11259     507.3823      11.2139    333.3932    160.8922   2.5111148e+00   1.0931058e+00   1.2933528e+00     1.089     0.602 -68.82 -68.82  +0.00  +0.00  +0.00
       588     321.6609     93.85324      508.609      11.2139     24.0888    163.6820   8.7826222e-01   1.2671092e+00   3.1038103e-01     1.102     0.870 -19.30 -19.30  +0.00  +0.00  +0.00
       589     200.3933     68.46436     507.8872      11.2139    172.4521    161.0963   1.2574790e+00   2.5514188e+00  -1.7888203e+00     1.118     0.577  27.06  27.06  +0.00  +0.00  +0.00
       590     140.1653     55.94791     508.5622      11.2139     43.9733    161.1617   2.4166641e+00   3.5755630e+00   3.5450437e+00     0.940     0.454 -35.95 -35.95  +0.00  +0.00  +0.00
       591     353.8556      91.2753     508.6206      11.2139     18.1068    159.5943   1.8161374e+00   1.0346917e+00   1.5758138e+00     1.353     0.659 -58.19 -58.19  +0.00  +0.00  +0.00
       592     131.2064     51.18589     507.3777      11.2139    350.2318    159.7827   3.0908000e+00   3.1374764e+00   3.9281492e+00     0.933     0.444 -44.66 -44.66  +0.00  +0.00  +0.00
       593     208.7302     64.73818     507.7966      11.2139    264.0021    160.1447   1.8215548e+00   4.2797947e+00   4.3090234e+00     1.324     0.425 -30.15 -30.15  +0.00  +0.00  +0.00
       594     146.1784     64.35053     507.9371      11.2139    153.5212    160.0306   1.4616333e+00   2.0876644e+00   5.9131149e-02     0.828     0.692  -2.70  -2.70  +0.00  +0.00  +0.00
       595      555.554     120.5347     507.8498      11.2139    229.6425    158.2959   2.7784663e-01   1.4528048e+00  -6.6990596e-01     2.300     0.805  14.84  14.84  +0.00  +0.00  +0.00
       596     397.3966     96.80922     507.8541      11.2139    226.0056    155.9130   8.5572231e-01   4.1754198e-01   8.8820562e-02     1.556     1.078 -84.27 -84.27  +0.00  +0.00  +0.00
       597      140.288      64.3139     508.5038      11.2139     89.0635    158.0028   1.0655158e+00   3.1963542e+00   2.1929033e+00     1.289     0.523 -22.91 -22.91  +0.00  +0.00  +0.00
       598     328.0036     93.88027     507.2677      11.2139    393.0326    155.4057   1.5908335e+00   6.6331315e-01  -1.7617124e-01     1.236     0.791  84.62  84.62  +0.00  +0.00  +0.00
       599     266.5531     98.84512     507.7969      11.2139    260.1794    155.9866   1.9410224e+00   2.2053392e+00   3.4965000e+00     1.768     0.511 -42.84 -42.84  +0.00  +0.00  +0.00
       600     106.2584     45.79335     507.3741      11.2139    364.2495    155.7546   2.0983686e+00   7.4759598e+00   4.1734543e+00     0.850     0.349 -18.91 -18.91  +0.00  +0.00  +0.00
       601     151.6327     51.34526       507.39      11.2139    319.1639    153.9980   2.2339511e+00   3.4317873e+00  -2.2254107e+00     0.798     0.494  30.85  30.85  +0.00  +0.00  +0.00
       602     333.5116     101.6215     507.8619      11.2139    217.1182    150.6669   3.1149092e-01   7.5084466e-01  -5.5415034e-01     2.373     1.063  25.80  25.80  +0.00  +0.00  +0.00
       603     158.3331     56.07765     507.8686      11.2139    178.2070    151.5715   6.1996212e+00   2.2336884e+00   5.9862490e+00     1.264     0.358 -61.76 -61.76  +0.00  +0.00  +0.00
       604      117.062     75.01144     507.9272      11.2139    156.1680    151.2512   7.4559522e-01   1.4031963e+00   1.2976094e-01     1.163     0.842  -5.58  -5.58  +0.00  +0.00  +0.00
       605     93.69098     50.89188     508.0712      11.2139    131.1362    152.2322   4.5562549e+00   5.0125775e+00   7.7357388e+00     1.048     0.340 -43.31 -43.31  +0.00  +0.00  +0.00
       606     356.9038     104.1569     508.6651      11.2139      3.0675    151.6933   1.3861445e+00   1.2586398e+00  -9.7715932e-01     1.098     0.742  48.72  48.72  +0.00  +0.00  +0.00
       607     117.6363      71.5833      506.954      11.2139    484.4787    149.8728   1.6598552e+00   1.2845286e+00   1.8485148e+00     1.375     0.643 -50.74 -50.74  +0.00  +0.00  +0.00
       608     140.0109     64.31218     507.1347      11.2139    441.7227    150.8449   6.9656718e-01   2.7581983e+00   1.1895619e-01     1.200     0.602  -1.65  -1.65  +0.00  +0.00  +0.00
       609     40.06171      50.4686     507.1725      11.2139    421.3510    150.5514   8.5062037e+00   1.9987509e+00  -5.7368302e+00     1.045     0.323  69.30  69.30  +0.00  +0.00  +0.00
       610     79.41293     45.55825     508.1254      11.2139    124.4682    150.5632   1.9536539e+01   4.0038753e+00   1.5765942e+01     1.192     0.209 -67.29 -67.29  +0.00  +0.00  +0.00
       611     280.1828     93.67629     507.7845      11.2139    259.7695    147.2221   5.8798409e-01   1.7489849e+00   3.6352050e-01     1.336     0.750  -8.69  -8.69  +0.00  +0.00  +0.00
       612     173.3534     60.49566      507.787      11.2139    255.8062    145.7706   1.5118490e+00   3.6531403e+00   3.0242240e+00     1.171     0.475 -27.35 -27.35  +0.00  +0.00  +0.00
       613     365.6821     99.24545     507.8666      11.2139    209.1443    146.1261   6.1229116e-01   5.6560040e-01  -5.0936198e-01     1.732     1.088  47.62  47.62  +0.00  +0.00  +0.00
       614     192.9575     64.64066     507.9457      11.2139    148.9462    147.6339   2.1304233e+00   1.0788088e+00  -6.9186008e-01     1.013     0.669  73.33  73.33  +0.00  +0.00  +0.00
       615     384.8151     85.73177     506.7346      11.2139    501.3596    147.0713   1.3269240e+00   2.0438778e+00   6.0857785e-01     0.907     0.681 -20.16 -20.16  +0.00  +0.00  +0.00
       616     172.9919     56.18211     508.5435      11.2139     61.1462    146.8121   2.5022795e+00   2.4697914e+00   1.3778821e+00     0.746     0.561 -45.68 -45.68  +0.00  +0.00  +0.00
       617     282.7511     88.15492     507.3856      11.2139    332.4619    143.3010   1.0089270e+00   1.7511961e+00   1.4423214e+00     1.326     0.676 -31.38 -31.38  +0.00  +0.00  +0.00
       618     133.9715      64.2746     507.8642      11.2139    176.7393    143.6028   1.3523155e+00   3.2215621e+00  -3.4616439e+00     1.768     0.485  30.82  30.82  +0.00  +0.00  +0.00
       619     69.48944     45.47104     507.4075      11.2139    306.7558    142.5211   1.3920356e+01   2.0992367e+00  -8.4491444e+00     1.159     0.256  72.22  72.22  +0.00  +0.00  +0.00
       620     115.1161     60.10936     507.1956      11.2139    420.7569    138.9439   1.6545758e+00   1.1936353e+00   1.3435272e+00     1.184     0.684 -54.47 -54.47  +0.00  +0.00  +0.00
       621      324.774     91.14777     507.2622      11.2139    394.2874    139.1411   4.2702490e-01   1.4103510e+00   1.9368815e-01     1.548     0.839  -5.57  -5.57  +0.00  +0.00  +0.00
       622     156.8239     46.23292     507.9091      11.2139    165.0002    140.4700   4.0142589e+00   8.0115080e+00   8.0112820e+00     0.807     0.309 -31.74 -31.74  +0.00  +0.00  +0.00
       623     141.5834     46.10088     506.9394      11.2139    488.0273    139.4583   4.0045977e+00   7.8902745e+00   7.8655310e+00     0.800     0.311 -31.86 -31.86  +0.00  +0.00  +0.00
       624     198.8518     84.85968     507.4086      11.2139    324.4433    136.7319   6.6264498e-01   1.3026062e+00   1.0129137e+00     1.615     0.795 -28.86 -28.86  +0.00  +0.00  +0.00
       625      496.101     109.3893     507.8088      11.2139    248.2698    135.3209   1.1394696e+00   1.0966771e+00   1.7474769e+00     2.024     0.709 -45.70 -45.70  +0.00  +0.00  +0.00
       626      108.055     51.00465     507.0567      11.2139    482.4190    134.3346   4.1486979e+00   1.0043604e+00  -4.0490159e-01     1.004     0.490  86.33  86.33  +0.00  +0.00  +0.00
       627     202.8083     72.05766     507.2085      11.2139    429.3955    134.4483   8.9975309e+00   1.9308983e+00   6.0982161e+00     1.120     0.314 -69.60 -69.60  +0.00  +0.00  +0.00
       628     67.65588     45.45491     507.1787      11.2139    457.5584    134.4827   4.0554891e+00   4.0049467e+00   5.0242376e-02     0.500     0.496 -67.59 -67.59  +0.00  +0.00  +0.00
       629     61.51923     45.40088     507.3813      11.2139    358.4991    134.4679   4.0058374e+00   4.0224428e+00   3.0616319e-01     0.509     0.490 -43.45 -43.45  +0.00  +0.00  +0.00
       630     271.7939     79.07912     507.9073      11.2139    167.5951    133.5239   7.7875060e-01   1.6542813e+00  -1.0639383e+00     1.377     0.724  25.27  25.27  +0.00  +0.00  +0.00
       631     184.7237      71.9572     508.0889      11.2139    137.2927    133.7796   7.0888138e-01   1.4607761e+00  -3.6513096e-01     1.225     0.816  12.95  12.95  +0.00  +0.00  +0.00
       632     320.8885     99.06475     508.1368      11.2139    134.1607    130.5412   4.1537187e-01   1.6932979e+00   1.0991828e+00     2.174     0.726 -20.35 -20.35  +0.00  +0.00  +0.00
       633     129.5128     64.24686     507.1823      11.2139    462.5007    132.0455   4.8069596e+00   8.2165956e-01  -1.6285450e+00     1.229     0.449  78.89  78.89  +0.00  +0.00  +0.00
       634     354.8931     91.27985     508.2403      11.2139    120.8288    132.7733   8.0877787e-01   2.8141668e+00   4.4605756e-01     1.129     0.594  -6.27  -6.27  +0.00  +0.00  +0.00
       635     107.2637     50.99844     507.9473      11.2139    158.7679    135.3947   2.1380913e+00   4.7259197e+00   2.1497834e+00     0.756     0.442 -19.86 -19.86  +0.00  +0.00  +0.00
       636     112.3366     45.84641      507.235      11.2139    403.5409    132.5432   4.0318451e+00   4.0350895e+00  -2.8234625e-01     0.507     0.489  44.67  44.67  +0.00  +0.00  +0.00
       637     197.6035     60.65579     507.8484      11.2139    222.9770    131.3009   1.7769322e+00   2.1762457e+00   5.8844063e-02     0.751     0.678  -4.19  -4.19  +0.00  +0.00  +0.00
       638     77.20279     45.53885     508.5753      11.2139     73.7192    131.2375   1.8686712e+00   7.1838975e+00   3.5250781e+00     0.865     0.360 -16.78 -16.78  +0.00  +0.00  +0.00
       639     141.6946     46.10184     506.9774      11.2139    504.1562    130.7716   1.8873609e+00   7.9309187e+00   4.1277189e+00     0.894     0.342 -17.17 -17.17  +0.00  +0.00  +0.00
       640     163.4906     68.24842     507.1406      11.2139    476.7193    129.2828   1.8651949e+00   2.0307994e+00   2.5463834e+00     1.220     0.557 -43.14 -43.14  +0.00  +0.00  +0.00
       641     42.28101     45.23106     508.5207      11.2139     47.4551    130.5371   4.0351343e+00   4.0248404e+00   2.0789857e-01     0.505     0.492 -46.42 -46.42  +0.00  +0.00  +0.00
       642     635.4055     116.5611     507.8642      11.2139    178.2180    128.1559   7.2955716e-01   9.3714750e-01  -9.6196169e-01     1.712     0.869  38.91  38.91  +0.00  +0.00  +0.00
       643     226.6293     68.61747     507.4825      11.2139    309.4109    127.8734   1.6716754e+00   1.9424888e+00  -2.7307796e+00     1.516     0.561  42.17  42.17  +0.00  +0.00  +0.00
       644     155.9012      56.0603       507.53      11.2139    301.4814    128.3323   1.2320981e+00   4.5069733e+00  -3.1102493e-02     0.901     0.471   0.27   0.27  +0.00  +0.00  +0.00
       645     238.8054      60.9269     508.2534      11.2139    124.6824    127.4137   2.8867404e+00   1.7183764e+00   1.8963586e+00     0.917     0.541 -60.82 -60.82  +0.00  +0.00  +0.00
       646     189.9807     81.79891     507.2504      11.2139    410.5660    124.7302   2.9705226e+00   1.1848091e+00   2.5134845e+00     1.366     0.526 -62.70 -62.70  +0.00  +0.00  +0.00
       647     83.63324     50.81276     507.8316      11.2139    243.6409    125.8230   1.0433760e+00   7.0641704e+00   9.1060400e-01     0.995     0.375  -4.30  -4.30  +0.00  +0.00  +0.00
       648       107.49     55.71381     507.8491      11.2139    229.0369    125.4932   1.5196229e+00   4.0159521e+00   3.0401522e-01     0.814     0.498  -3.47  -3.47  +0.00  +0.00  +0.00
       649     192.8284     81.81284      508.449      11.2139    105.1510    123.8066   1.0950330e+00   8.3595324e-01  -4.0328094e-01     1.174     0.911  61.36  61.36  +0.00  +0.00  +0.00
       650     258.3437     82.13253     507.8642      11.2139    187.1799    123.7135   4.9327576e-01   1.2806342e+00   5.5981302e-03     1.424     0.884  -0.20  -0.20  +0.00  +0.00  +0.00
       651     123.5885     64.20996     508.0476      11.2139    149.2148    123.6545   6.7580444e-01   1.6227103e+00  -8.4019434e-01     1.392     0.749  20.79  20.79  +0.00  +0.00  +0.00
       652     141.0736     64.31879     508.6364      11.2139     33.0000    123.4693   2.9914980e+00   6.0587019e-01   5.9114861e-01     1.325     0.575 -83.04 -83.04  +0.00  +0.00  +0.00
       653     396.5006     88.66956     508.6493      11.2139     32.5932    119.0970   3.7525812e-01   2.2154951e+00  -3.5425201e-01     1.670     0.669   5.45   5.45  +0.00  +0.00  +0.00
       654      334.152     76.16028     507.2166      11.2139    465.6436    122.9205   7.6396751e-01   1.4121963e+00  -5.4105204e-01     1.225     0.814  19.93  19.93  +0.00  +0.00  +0.00
       655      116.199      45.8801     507.2673      11.2139    434.7312    123.2453   2.1849654e+00   7.4526019e+00   4.2337384e+00     0.833     0.349 -19.39 -19.39  +0.00  +0.00  +0.00
       656     395.1433     88.66344     508.0042      11.2139    158.8268    116.7041   1.7288335e-01   3.4240341e+00  -3.2719389e-01     2.464     0.540   2.87   2.87  +0.00  +0.00  +0.00
       657     158.1488     56.07633     507.9138      11.2139    170.3141    121.4147   1.4643266e+00   9.3632183e+00   5.6626716e+00     1.343     0.312 -17.82 -17.82  +0.00  +0.00  +0.00
       658     86.73907      50.8372     508.2316      11.2139    131.1978    122.3940   2.0784755e+00   4.5906887e+00  -1.8288829e+00     0.749     0.452  18.03  18.03  +0.00  +0.00  +0.00
       659     122.7766     45.93741      507.491      11.2139    315.5446    120.4896   4.0097613e+00   1.9841763e+01   1.5939237e+01     1.201     0.208 -22.60 -22.60  +0.00  +0.00  +0.00
       660     499.8842     109.4031     507.6209      11.2139    295.0903    118.0194   7.9474288e-01   6.7531449e-01   4.3385181e-01     1.400     1.021 -52.70 -52.70  +0.00  +0.00  +0.00
       661     565.1657     109.6416     507.8639      11.2139    210.2073    119.3651   1.3125477e+00   1.7402158e+00   1.8333836e+00     1.307     0.637 -38.43 -38.43  +0.00  +0.00  +0.00
       662      180.938      68.3506     507.8586      11.2139    226.6440    118.4802   1.8361714e+00   2.6742551e+00   3.6172729e+00     1.584     0.493 -38.48 -38.48  +0.00  +0.00  +0.00
       663     124.7279     55.83743     507.3397      11.2139    501.1687    115.3676   1.2454158e+00   5.6062794e+00   2.5494225e+00     1.054     0.410 -15.16 -15.16  +0.00  +0.00  +0.00
       664     142.9954     46.11312     507.7998      11.2139    261.9588    115.5238   4.0247822e+00   7.4876618e+00   7.4834957e+00     0.782     0.318 -32.58 -32.58  +0.00  +0.00  +0.00
       665     518.4285     99.85918     508.5215      11.2139    103.2418    115.2125   4.0219679e-01   2.4337444e+00  -8.0688399e-01     1.754     0.631  10.83  10.83  +0.00  +0.00  +0.00
       666     449.0884     109.2173     508.6989      11.2139     29.5545    112.9653   8.4777766e-01   6.1928838e-01   4.9829164e-01     1.475     0.996 -57.32 -57.32  +0.00  +0.00  +0.00
       667     231.5448     68.64612     508.0763      11.2139    151.6719    113.4154   1.3283728e+00   1.6979867e+00  -9.8961306e-01     1.008     0.700  34.76  34.76  +0.00  +0.00  +0.00
       668     250.4196     72.32148     508.5675      11.2139     91.2210    113.0863   8.3929420e-01   2.7373273e+00  -2.1067393e+00     1.643     0.558  23.99  23.99  +0.00  +0.00  +0.00
       669     592.0355     122.7225     507.3258      11.2139    388.8703    110.7745   8.0341536e-01   9.4942975e-01   1.4674252e+00     2.681     0.787 -42.16 -42.16  +0.00  +0.00  +0.00
       670     158.1127     51.39572     508.5241      11.2139     54.6314    114.7750   4.3622241e+00   7.6211424e+00   1.0027663e+01     1.179     0.298 -36.00 -36.00  +0.00  +0.00  +0.00
       671     84.65833     45.60428     507.3927      11.2139    356.7326    118.9964   5.0611658e+00   7.2812333e+00   1.0144214e+01     1.011     0.297 -38.83 -38.83  +0.00  +0.00  +0.00
       672     485.7917     118.1939     508.1463      11.2139    140.5489    106.0036   4.8222089e-01   1.0971106e+00  -5.4614878e-01     1.626     0.913  20.81  20.81  +0.00  +0.00  +0.00
       673       410.06     91.52128     508.8697      11.2139     12.7626    105.4472   5.1771736e-01   3.9687924e+00   2.5055168e-02     1.390     0.502  -0.21  -0.21  +0.00  +0.00  +0.00
       674     34.62778     45.16333     507.5767      11.2139    307.0287    106.5667   2.0919327e+01   8.4645052e+00  -2.5371635e+01     1.336     0.186  58.07  58.07  +0.00  +0.00  +0.00
       675     109.3647     64.12129     507.7691      11.2139    273.9480    106.8261   1.0464110e+00   1.9212018e+00   3.9570090e-01     0.998     0.714 -12.17 -12.17  +0.00  +0.00  +0.00
       676     154.0641      51.3642     507.8557      11.2139    235.6739    107.5630   2.1743724e+00   8.6513920e+00   6.3161950e+00     1.060     0.317 -22.14 -22.14  +0.00  +0.00  +0.00
       677     97.32861     67.85954     507.8642      11.2139    182.1003    105.2648   1.7303332e+00   1.6859196e+00   2.6773620e+00     1.646     0.573 -45.48 -45.48  +0.00  +0.00  +0.00
       678     119.6205     45.90992     507.4334      11.2139    348.0390    105.7603   2.1571753e+00   5.4924898e+00  -2.2133061e-01     0.681     0.427   1.90   1.90  +0.00  +0.00  +0.00
       679     98.78516     60.00059     508.5836      11.2139     77.3241    105.1622   1.2234159e+00   3.4465959e+00   2.0782294e+00     1.109     0.509 -21.53 -21.53  +0.00  +0.00  +0.00
       680     167.2391      51.4667     508.7592      11.2139     23.6159    105.1673   4.9660869e+00   2.2101040e+00   2.5555730e+00     0.765     0.428 -68.58 -68.58  +0.00  +0.00  +0.00
       681     323.6198      91.1427     507.3851      11.2139    436.5452    104.3715   4.0823233e-01   4.1045890e+00   4.6588263e-01     1.594     0.493  -3.59  -3.59  +0.00  +0.00  +0.00
       682     144.2814     60.30313     507.8642      11.2139    204.2654    104.5840   1.0007026e+00   4.4035602e+00  -1.0726529e+00     1.044     0.472   8.75   8.75  +0.00  +0.00  +0.00
       683     81.13235     45.57335     507.3155      11.2139    474.5121    103.5311   4.0024600e+00   4.0156541e+00   4.3122139e-02     0.501     0.498 -36.49 -36.49  +0.00  +0.00  +0.00
       684     98.80496      45.7282     507.4122      11.2139    374.7145    103.0003   4.9020262e+00   2.1679549e+00  -1.7820545e-03     0.679     0.452  89.98  89.98  +0.00  +0.00  +0.00
       685     122.0078     45.93071     507.6368      11.2139    297.4913    102.4596   4.0043669e+00   4.0294557e+00   2.2569610e-01     0.506     0.492 -41.83 -41.83  +0.00  +0.00  +0.00
       686       181.92     81.75949     507.6613      11.2139    292.7825    100.9966   9.9656808e-01   1.5738881e+00  -2.0003307e+00     2.023     0.656  36.95  36.95  +0.00  +0.00  +0.00
       687     171.7712     46.36206     507.5528      11.2139    314.0084    102.5153   4.0134363e+00   8.2896242e+00   8.2948637e+00     0.820     0.304 -31.36 -31.36  +0.00  +0.00  +0.00
       688     262.2545     68.82484     508.6084      11.2139     38.8835    101.4573   1.9516470e+00   1.2639375e+00  -6.6161966e-01     0.940     0.693  68.05  68.05  +0.00  +0.00  +0.00
       689     383.0157      88.6087     508.9702      11.2139      2.7393    101.4171   6.8756706e-01   1.2619539e+00  -1.8780571e-01     1.219     0.885   9.05   9.05  +0.00  +0.00  +0.00
       690     190.3004     64.62421     507.8178      11.2139    252.7164    100.7206   2.1356578e+00   3.2951913e+00   4.4111056e+00     1.516     0.447 -37.64 -37.64  +0.00  +0.00  +0.00
       691     139.7066     60.27277     507.8127      11.2139    254.4807     96.9591   2.1639721e+00   1.8019824e+00  -1.5407345e-01     0.748     0.677  78.47  78.47  +0.00  +0.00  +0.00
       692     111.8564     55.74514     507.8484      11.2139    229.5556    101.0377   1.1098871e+00   4.1137180e+00   2.1139638e+00     1.136     0.474 -17.57 -17.57  +0.00  +0.00  +0.00
       693     525.4152      104.802     508.2843      11.2139    127.8589     99.0694   9.9238390e-01   1.1856976e+00  -4.6296424e-01     1.092     0.864  33.67  33.67  +0.00  +0.00  +0.00
       694     78.75143     45.55244     507.4375      11.2139    368.2139     99.0178   5.6181850e+00   7.7665949e+00   1.1331442e+01     1.039     0.283 -39.63 -39.63  +0.00  +0.00  +0.00
       695     156.4284     64.41422     507.8293      11.2139    244.6338     98.7510   1.1860675e+00   2.7718484e+00   1.2610527e+00     1.017     0.578 -19.25 -19.25  +0.00  +0.00  +0.00
       696     231.1569     72.21486     507.8642      11.2139    207.2304     97.5758   2.0148790e+00   9.1830486e-01  -1.6430919e+00     1.445     0.638  61.86  61.86  +0.00  +0.00  +0.00
       697     261.6976     75.77879     507.9753      11.2139    158.4513     98.2064   8.6669290e-01   1.4615706e+00  -1.9145672e-01     1.084     0.823   8.92   8.92  +0.00  +0.00  +0.00
       698     182.4558     68.35948     508.5565      11.2139     66.6057     98.8599   9.1596192e-01   1.8388896e+00   2.3146744e-01     1.053     0.735  -7.04  -7.04  +0.00  +0.00  +0.00
       699     104.8826     64.09332     507.3217      11.2139    469.1270     96.9374   1.1547358e+00   1.0657866e+00   5.1487912e-03     0.969     0.931 -88.34 -88.34  +0.00  +0.00  +0.00
       700     73.24277     45.50405     507.4273      11.2139    437.4655     98.4552   4.0305748e+00   4.0438547e+00  -4.2963201e-01     0.511     0.485  44.11  44.11  +0.00  +0.00  +0.00
       701     408.9244     101.9179     507.4511      11.2139    417.4267     95.0208   8.8621610e-01   1.0995988e+00   6.7390054e-01     1.251     0.862 -36.22 -36.22  +0.00  +0.00  +0.00
       702     218.3824     56.50435     507.5449      11.2139    326.4935     93.5271   1.6393205e+00   5.3083487e+00   2.9158392e+00     0.940     0.415 -19.24 -19.24  +0.00  +0.00  +0.00
       703     330.1983     85.47656     507.8106      11.2139    252.5115     92.6356   7.8334433e-01   1.0774087e+00   2.0074098e-01     1.153     0.950 -17.16 -17.16  +0.00  +0.00  +0.00
       704     384.6999     85.73123     508.4187      11.2139    116.5424     92.8327   4.6788451e-01   2.2638433e+00  -7.7498692e-01     1.606     0.653  11.67  11.67  +0.00  +0.00  +0.00
       705     238.2198     75.65475     507.3661      11.2139    494.1356     91.4606   3.4564164e+00   1.9345343e+00   3.3263662e+00     1.074     0.470 -57.29 -57.29  +0.00  +0.00  +0.00
       706     248.7393     72.31218     508.0695      11.2139    140.7591     91.3355   2.3838263e+00   2.2542980e+00   3.8799722e+00     1.627     0.484 -45.96 -45.96  +0.00  +0.00  +0.00
       707      63.9754     45.42251     507.8227      11.2139    238.7534     91.2369   7.4686508e+00   2.0336435e+00   4.1200833e+00     0.864     0.350 -71.42 -71.42  +0.00  +0.00  +0.00
       708     145.9502      60.3142     507.8338      11.2139    230.5684     90.8229   2.2424142e+00   2.5185878e+00  -2.9777601e+00     1.063     0.508  42.35  42.35  +0.00  +0.00  +0.00
       709     497.0154      113.898     508.7893      11.2139     20.6372     89.2738   8.1510860e-01   4.2456543e-01  -2.9149839e-01     1.630     1.076  71.63  71.63  +0.00  +0.00  +0.00
       710     387.2703     91.42162     507.7944      11.2139    269.7011     89.2633   1.3705784e+00   1.4741211e+00   1.7846117e+00     1.375     0.657 -43.34 -43.34  +0.00  +0.00  +0.00
       711     101.3403     45.75037     508.2818      11.2139    125.7786     89.9714   5.3361235e+00   7.5407524e+00   1.0828549e+01     1.047     0.289 -39.25 -39.25  +0.00  +0.00  +0.00
       712     159.5862     56.08659      507.472      11.2139    384.4396     89.6672   1.1672435e+00   4.5064006e+00   1.1079561e-01     0.926     0.471  -0.95  -0.95  +0.00  +0.00  +0.00
       713     68.86288     45.46553     507.8642      11.2139    188.2436     89.0220   5.1276793e+00   7.2342453e+00   1.0374582e+01     1.061     0.295 -39.26 -39.26  +0.00  +0.00  +0.00
       714     156.0764     84.65781     508.4059      11.2139    117.0000     86.9562   2.6983519e+00   9.7179407e-01  -5.6889221e-02     1.015     0.609  89.06  89.06  +0.00  +0.00  +0.00
       715     287.8333     82.27602     507.8063      11.2139    250.6430     86.7570   4.5477709e-01   7.6158500e-01   4.2193365e-01     1.697     1.073 -26.99 -26.99  +0.00  +0.00  +0.00
       716     144.1734     55.97655     507.3572      11.2139    477.9203     87.1942   2.4104066e+00   3.5439618e+00   3.5625374e+00     0.950     0.454 -36.17 -36.17  +0.00  +0.00  +0.00
       717     101.9027      67.8865     507.4775      11.2139    442.7712     86.2400   9.1182971e-01   1.4832023e+00   1.3942680e+00     1.501     0.716 -33.86 -33.86  +0.00  +0.00  +0.00
       718     366.9501     99.25056     507.9884      11.2139    151.7041     93.1264   9.1350931e-01   4.0807959e-01   4.9212867e-01     1.802     0.993 -67.88 -67.88  +0.00  +0.00  +0.00
       719     55.18475     45.34503       507.58      11.2139    322.4768     87.0000   7.9650754e-01   1.2000005e+01  -0.0000000e+00     1.120     0.289   0.00   0.00  +0.00  +0.00  +0.00
       720     86.16248     45.61748     507.6901      11.2139    289.9815     86.7488   1.9517636e+00   5.3178444e+00   9.6529171e-02     0.716     0.434  -0.82  -0.82  +0.00  +0.00  +0.00
       721     127.8559     68.03925     507.8642      11.2139    196.4345     85.9152   1.7083045e+00   1.4652320e+00   1.7552329e+00     1.195     0.636 -48.94 -48.94  +0.00  +0.00  +0.00
       722     54.10602     45.33551     507.9465      11.2139    154.5115     86.4550   4.0474262e+00   4.0783362e+00  -8.5985762e-01     0.525     0.472  43.97  43.97  +0.00  +0.00  +0.00
       723     124.4471     60.17142     508.5883      11.2139     41.2265     85.7125   1.2167666e+00   2.6661229e+00  -1.6754596e+00     1.095     0.573  24.57  24.57  +0.00  +0.00  +0.00
       724     520.6203     109.4789     507.7995      11.2139    263.8186     83.2431   3.8950780e-01   8.9639342e-01  -2.8302372e-01     1.684     1.035  14.59  14.59  +0.00  +0.00  +0.00
       725     562.2094     109.6308     508.5106      11.2139    100.5983     83.8331   8.4688568e-01   5.8778632e-01  -6.5963790e-02     1.309     1.084  82.86  82.86  +0.00  +0.00  +0.00
       726     166.8075     75.27624     507.6006      11.2139    310.1047     82.4708   1.6283693e+00   6.1317921e-01   6.9645494e-02     1.278     0.783 -88.04 -88.04  +0.00  +0.00  +0.00
       727     208.9137     72.09155     507.7742      11.2139    277.4416     81.7476   7.4219859e-01   1.8807012e+00   7.9415761e-02     1.162     0.729  -2.00  -2.00  +0.00  +0.00  +0.00
       728     345.8576     93.95631     508.6787      11.2139     32.3587     80.6580   9.0688050e-01   6.6352248e-01  -5.6667078e-01     1.448     0.956  56.62  56.62  +0.00  +0.00  +0.00
       729     141.0969       60.282     508.8898      11.2139     10.9446     84.7432   1.8526534e+00   2.2058973e+00   1.8346628e-02     0.735     0.673  -1.49  -1.49  +0.00  +0.00  +0.00
       730     93.12195      50.8874     508.4841      11.2139    105.3644     79.7824   4.6052876e+00   8.6563568e+00  -1.1220420e+01     1.225     0.282  35.07  35.07  +0.00  +0.00  +0.00
       731     247.5914     82.08015     508.9481      11.2139      5.2843     79.0407   2.0961068e+00   1.8877345e+00   5.8043715e-02     0.729     0.690 -82.22 -82.22  +0.00  +0.00  +0.00
       732      74.6792     50.74223     507.6013      11.2139    413.5928     77.8261   4.9675879e+00   2.0188222e+00  -2.5809550e+00     0.807     0.428  69.40  69.40  +0.00  +0.00  +0.00
       733     211.3665     64.75447     507.5537      11.2139    358.1604     77.7018   2.7720592e+00   1.8949882e+00   2.8175309e+00     1.080     0.512 -53.65 -53.65  +0.00  +0.00  +0.00
       734     95.57059     50.90665     508.5795      11.2139     84.1718     78.6010   1.9663092e+00   4.8201585e+00   2.2612824e+00     0.797     0.438 -19.20 -19.20  +0.00  +0.00  +0.00
       735     406.4962     99.40981     507.5648      11.2139    460.8279     74.9228   1.5137535e+00   1.3269484e+00   2.4934421e+00     2.424     0.612 -47.14 -47.14  +0.00  +0.00  +0.00
       736     510.5219     104.7451      507.795      11.2139    249.2706     75.6056   4.3985263e-01   8.4384221e-01  -1.6574064e-01     1.537     1.078  11.15  11.15  +0.00  +0.00  +0.00
       737     89.92688     45.65047     508.1164      11.2139    134.0156     77.2703   7.3051376e+00   5.2677226e+00  -1.0446618e+01     1.018     0.294  50.52  50.52  +0.00  +0.00  +0.00
       738     124.9749     51.13717     508.2571      11.2139    123.8313     76.4527   2.0959270e+00   4.6054373e+00   2.1848254e+00     0.770     0.447 -20.52 -20.52  +0.00  +0.00  +0.00
       739     69.59698     45.47199     508.5604      11.2139     87.2263     75.5121   1.3300060e+01   1.9867915e+00   7.7656951e+00     1.131     0.263 -72.77 -72.77  +0.00  +0.00  +0.00
       740     69.72864     45.47314     507.8137      11.2139    228.9484     75.1993   1.9643342e+00   6.2751827e+00  -2.5293794e-01     0.714     0.399   1.68   1.68  +0.00  +0.00  +0.00
       741     89.07394     63.99459     507.6104      11.2139    352.4153     74.4776   8.2859445e-01   4.0082989e+00  -2.7753329e-02     1.099     0.499   0.25   0.25  +0.00  +0.00  +0.00
       742     221.1864      64.8151      508.792      11.2139     21.1719     73.3917   6.4827818e-01   3.9061606e+00   1.7445026e-01     1.244     0.506  -1.53  -1.53  +0.00  +0.00  +0.00
       743     103.7607     55.68702     507.6674      11.2139    445.0083     71.8095   2.2867384e+00   3.3418458e+00   3.2967889e+00     0.961     0.469 -36.13 -36.13  +0.00  +0.00  +0.00
       744     97.91492     55.64502     507.6745      11.2139    410.8357     70.2056   8.3870869e+00   2.2129850e+00   7.4181724e+00     1.452     0.314 -64.89 -64.89  +0.00  +0.00  +0.00
       745     173.0794     56.18273     507.6691      11.2139    297.1689     76.5230   2.7938154e+00   1.4675342e+00   1.5193734e+00     0.944     0.564 -65.56 -65.56  +0.00  +0.00  +0.00
       746     316.0023      85.4101     508.7572      11.2139     24.5359     68.9443   1.2013814e+00   2.0944190e+00   1.1106052e+00     1.034     0.651 -25.60 -25.60  +0.00  +0.00  +0.00
       747     291.6418     72.54911     507.7946      11.2139    235.2497     67.9278   1.1372256e+00   2.9082773e+00   2.2989116e+00     1.323     0.537 -26.19 -26.19  +0.00  +0.00  +0.00
       748     241.7433     75.67339     507.8785      11.2139    163.9971     68.1681   2.0941448e+00   3.3142428e+00   2.8012860e+00     0.922     0.486 -33.23 -33.23  +0.00  +0.00  +0.00
       749     312.6507     96.45843     507.5896      11.2139    395.3765     77.2420   9.9779665e-01   1.2378639e+00   4.5320755e-01     1.077     0.853 -31.04 -31.04  +0.00  +0.00  +0.00
       750     542.2084     116.2408     507.4938      11.2139    508.9494     65.8731   7.8398293e-01   2.3705668e+00   1.2247856e+00     1.319     0.623 -18.83 -18.83  +0.00  +0.00  +0.00
       751      89.6651     45.64818     507.7641      11.2139    426.5106     63.9966   7.0378809e+00   4.0774479e+00   7.0368948e+00     0.758     0.327 -56.41 -56.41  +0.00  +0.00  +0.00
       752     219.1152     60.79749     507.6898      11.2139    389.9668     63.9908   2.3807774e+00   2.5366302e+00   2.3895199e+00     0.890     0.523 -43.13 -43.13  +0.00  +0.00  +0.00
       753     129.7676     51.17464     508.0575      11.2139    135.5619     64.2563   4.7003374e+00   2.1479104e+00   2.3415112e+00     0.769     0.440 -68.73 -68.73  +0.00  +0.00  +0.00
       754     211.9382       64.758     508.8722      11.2139     12.2225     63.1473   4.9315119e+00   4.6583996e+00   7.6130710e+00     1.007     0.341 -46.03 -46.03  +0.00  +0.00  +0.00
       755     236.7349     78.90158     507.6723      11.2139    368.8831     62.1251   1.8526077e+00   1.8982931e+00  -9.1608232e-01     0.840     0.655  43.57  43.57  +0.00  +0.00  +0.00
       756     359.8756     96.65407      507.724      11.2139    352.7046     60.7356   1.1273267e+00   5.0486052e-01  -7.0894361e-02     1.410     0.941  86.75  86.75  +0.00  +0.00  +0.00
       757       98.297     59.99733      507.799      11.2139    185.3307     58.9351   3.4457252e+00   1.0046847e+00   2.3981326e+00     1.395     0.504 -67.75 -67.75  +0.00  +0.00  +0.00
       758     92.88721      45.6764     508.4293      11.2139     98.5417     62.4884   4.0286555e+00   4.0028319e+00   1.0324920e-01     0.502     0.496 -52.02 -52.02  +0.00  +0.00  +0.00
       759     476.4761     111.5945     508.5732      11.2139     62.2643     61.5378   4.4446599e-01   1.1006471e+00  -7.7298903e-01     1.940     0.884  24.84  24.84  +0.00  +0.00  +0.00
       760     482.6646     118.1833     507.7151      11.2139    383.6454     60.2259   3.8429171e-01   1.8098177e+00  -3.7256530e-01     1.666     0.738   7.32   7.32  +0.00  +0.00  +0.00
       761     124.4462      64.2153     507.9881      11.2139    142.0220     61.6085   4.1872159e-01   5.8917608e+00  -1.6845021e+00     1.850     0.408   8.55   8.55  +0.00  +0.00  +0.00
       762     501.4529     113.9136     507.8548      11.2139    166.4529     60.2811   3.9113927e-01   4.9520020e+00  -7.0614360e-02     1.600     0.449   0.44   0.44  +0.00  +0.00  +0.00
       763     176.6227     68.32534       507.79      11.2139    215.3901     57.4276   6.2834364e-01   4.1218882e+00  -4.6898007e-01     1.278     0.492   3.82   3.82  +0.00  +0.00  +0.00
       764     325.0784     93.86781      508.594      11.2139     81.1221     57.5365   1.4814874e+00   3.5909370e-01  -1.0964365e-01     1.675     0.821  87.21  87.21  +0.00  +0.00  +0.00
       765     299.8836     82.33459     508.5597      11.2139     83.6079     53.0253   1.1975536e+00   2.7034640e+00   1.8559953e+00     1.151     0.564 -25.47 -25.47  +0.00  +0.00  +0.00
       766     565.4603     116.3208     507.7832      11.2139    211.9225     53.5854   4.4671693e-01   8.1980151e-01  -3.4692967e-01     1.625     1.061  21.46  21.46  +0.00  +0.00  +0.00
       767     266.0612     88.07916     507.8946      11.2139    484.4885     56.0101   9.7418249e-01   7.8206962e-01   5.8678818e-01     1.325     0.918 -54.06 -54.06  +0.00  +0.00  +0.00
       768      164.971     64.46724     508.0201      11.2139    472.0334     56.5349   1.8020738e+00   2.0299480e+00   1.8715636e+00     1.014     0.591 -41.53 -41.53  +0.00  +0.00  +0.00
       769     290.3677     88.18948     507.7777      11.2139    236.5009     56.1851   7.3717791e-01   1.5034096e+00  -5.9333348e-01     1.254     0.789  18.88  18.88  +0.00  +0.00  +0.00
       770     125.9426     55.84613      508.251      11.2139    113.5161     57.0143   4.0070109e+00   1.5269125e+00  -1.3263839e-01     0.810     0.499  88.47  88.47  +0.00  +0.00  +0.00
       771     129.1273     51.16964     507.7671      11.2139    395.7910     56.3809   2.0593112e+00   4.6339397e+00   1.7995418e+00     0.750     0.451 -17.48 -17.48  +0.00  +0.00  +0.00
       772     284.8474     79.14512      507.788      11.2139    344.8708     55.6762   1.6914939e+00   2.2834346e+00   1.0051368e+00     0.844     0.624 -29.75 -29.75  +0.00  +0.00  +0.00
       773     226.4419     68.61638     508.5779      11.2139     49.1234     54.7320   1.2570136e+00   1.9814745e+00   1.0892315e+00     1.018     0.663 -28.19 -28.19  +0.00  +0.00  +0.00
       774     78.45132     55.50493     507.8063      11.2139    327.1780     53.7102   1.1266797e+00   2.1204886e+00   1.2025955e+00     1.089     0.645 -25.22 -25.22  +0.00  +0.00  +0.00
       775     65.79889     45.43856     507.8699      11.2139    161.4981     54.4934   4.0031195e+00   4.0037684e+00   2.2147788e-01     0.507     0.493 -44.92 -44.92  +0.00  +0.00  +0.00
       776     129.5663     55.87208      508.348      11.2139    103.4893     54.3106   1.1694928e+00   4.6757364e+00  -1.5607023e-01     0.925     0.462   1.27   1.27  +0.00  +0.00  +0.00
       777     246.2603     60.97582       507.76      11.2139    290.2084     57.6956   1.0934235e+00   2.3113010e+00  -1.0361873e+00     1.052     0.632  20.20  20.20  +0.00  +0.00  +0.00
       778     182.2534      68.3583     507.8759      11.2139    415.4124     50.1058   7.1192402e-01   1.4530451e+00   1.0543698e+00     1.511     0.761 -27.45 -27.45  +0.00  +0.00  +0.00
       779     65.62039     45.43699     507.8105      11.2139    338.7130     54.9352   5.7997193e+00   7.3594275e+00  -1.1287544e+01     1.065     0.285  41.07  41.07  +0.00  +0.00  +0.00
       780     103.2151     45.76676     508.0548      11.2139    133.0684     51.7872   1.8948241e+00   5.9837055e+00  -3.2928172e-01     0.728     0.409   2.30   2.30  +0.00  +0.00  +0.00
       781     130.1569      55.8763     507.7677      11.2139    433.8827     64.6487   1.0659864e+00   5.2991862e+00   1.9708997e+00     1.086     0.426 -12.48 -12.48  +0.00  +0.00  +0.00
       782      49.9176     45.29854      508.068      11.2139    442.2270     49.0213   1.5024644e+00   2.1210301e+00  -1.0483856e-01     0.817     0.686   4.81   4.81  +0.00  +0.00  +0.00
       783     373.6305     88.56633      507.792      11.2139    219.5627     58.7289   1.8356411e+00   1.1149967e+00  -6.6079587e-01     1.007     0.714  68.74  68.74  +0.00  +0.00  +0.00
       784     75.20978     45.52134     508.3186      11.2139    461.2442     47.7264   7.4058795e+00   2.1518328e+00   4.1359286e+00     0.835     0.351 -70.90 -70.90  +0.00  +0.00  +0.00
       785      366.747     88.53523     507.6717      11.2139    192.9594     44.4528   1.3330748e+00   3.1083113e-01  -4.8738432e-01     1.978     0.849  77.25  77.25  +0.00  +0.00  +0.00
       786     179.8804     71.93027     508.6212      11.2139     41.1628     47.5469   1.7392238e+00   1.5656056e+00   2.0290697e+00     1.256     0.612 -47.45 -47.45  +0.00  +0.00  +0.00
       787     136.2687     55.92004     507.7741      11.2139    493.3925     47.3133   2.5267832e+00   2.3487239e+00   2.3601401e+00     0.893     0.526 -47.16 -47.16  +0.00  +0.00  +0.00
       788     241.6263     78.92638     507.7265      11.2139    216.8262     47.1295   3.3112368e-01   1.2331761e+00  -3.5791615e-01     1.835     0.888  10.82  10.82  +0.00  +0.00  +0.00
       789     432.8134     102.0116     508.6118      11.2139     33.4395     44.9744   9.1607279e-01   1.2427205e+00  -1.6830822e+00     2.122     0.719  39.51  39.51  +0.00  +0.00  +0.00
       790     56.75903     45.35891     507.5771      11.2139    501.9668     46.5225   4.0049324e+00   8.2396059e+00   8.2332850e+00     0.818     0.305 -31.39 -31.39  +0.00  +0.00  +0.00
       791     198.0168        56.36     508.4792      11.2139     67.7674     45.8367   1.9358857e+00   4.3405004e+00   4.1519785e+00     1.163     0.425 -29.96 -29.96  +0.00  +0.00  +0.00
       792     132.7924     55.89517     507.1579      11.2139    511.0020     45.4717   1.6019254e+00   4.0133567e+00  -5.7406295e-02     0.790     0.499   0.68   0.68  +0.00  +0.00  +0.00
       793     165.8884     75.27135     506.6143      11.2139     25.3053    509.0013   9.2443001e-01   1.1719946e+00   5.0372571e-01     1.141     0.867 -31.91 -31.91  +0.00  +0.00  +0.00
       794     363.8513      85.6339     508.4027      11.2139     59.1850     43.9860   1.2911048e+00   2.5105929e+00   1.3490632e+00     1.004     0.597 -23.94 -23.94  +0.00  +0.00  +0.00
       795     123.7173     60.16657     508.0289      11.2139    477.7347     43.2953   1.7483710e+00   3.6377549e+00   3.2373230e+00     1.105     0.468 -29.87 -29.87  +0.00  +0.00  +0.00
       796     173.6458     56.18677     508.1092      11.2139    111.9793     43.5166   1.6611364e+00   4.0313754e+00   4.2332104e-01     0.780     0.497  -5.06  -5.06  +0.00  +0.00  +0.00
       797     133.1002     64.26919     507.7597      11.2139    484.1296     41.4916   3.2104869e+00   5.9856808e-01   6.8916547e-01     1.344     0.554 -82.61 -82.61  +0.00  +0.00  +0.00
       798     74.50378     45.51513     507.8679      11.2139    402.7382     42.0250   5.1761785e+00   2.1656773e+00  -1.4641853e-01     0.680     0.439  88.61  88.61  +0.00  +0.00  +0.00
       799     118.3033     67.98306      508.184      11.2139    443.0904     40.3433   1.4766041e+00   1.7199476e+00  -1.6598418e+00     1.147     0.641  40.83  40.83  +0.00  +0.00  +0.00
       800     421.9944     94.27988     508.5908      11.2139     26.1582     40.0061   1.3547275e+00   5.2604157e-01  -1.1720507e+00     2.119     0.777  62.63  62.63  +0.00  +0.00  +0.00
       801       257.61     82.12896      508.635      11.2139     20.7918     38.1211   6.9491506e-01   2.0319579e+00  -1.4110289e+00     1.598     0.654  23.27  23.27  +0.00  +0.00  +0.00
       802     391.9348     96.78665     507.1568      11.2139    496.0915     39.3150   8.0052155e-01   2.9470758e+00   2.3097892e+00     1.834     0.538 -23.55 -23.55  +0.00  +0.00  +0.00
       803     129.5599     45.99643     507.7225      11.2139    253.9343     40.5461   4.0126519e+00   8.3772221e+00   8.3490562e+00     0.821     0.303 -31.20 -31.20  +0.00  +0.00  +0.00
       804     221.6619     72.16225     507.8633      11.2139    383.7975     38.4977   6.2717485e-01   2.2775457e+00  -1.2948357e+00     1.574     0.632  19.06  19.06  +0.00  +0.00  +0.00
       805     83.45563     45.59373     507.7167      11.2139    248.1167     39.7781   2.0307319e+00   5.8374414e+00  -6.0906851e-01     0.706     0.413   4.55   4.55  +0.00  +0.00  +0.00
       806     233.1207      68.6553     508.3474      11.2139    452.4622     37.9972   7.5549239e-01   2.6953049e+00   7.3513895e-01     1.205     0.602 -10.38 -10.38  +0.00  +0.00  +0.00
       807     437.8092     102.0312     507.5772      11.2139    184.5892     37.1973   3.9106911e-01   9.5011443e-01  -4.5547497e-01     1.796     0.985  19.59  19.59  +0.00  +0.00  +0.00
       808     294.1187     88.20649     507.8307      11.2139    138.9301     36.1556   9.2433864e-01   4.7004256e-01   5.1934069e-01     1.685     0.980 -65.59 -65.59  +0.00  +0.00  +0.00
       809     308.2242     96.44007     508.2482      11.2139     38.5880     35.2844   9.2214370e-01   1.4370860e+00   1.0343046e+00     1.289     0.754 -31.77 -31.77  +0.00  +0.00  +0.00
       810     161.1977     64.44382      507.946      11.2139    413.4869     36.7868   2.2503822e+00   3.0606124e+00   4.1902299e+00     1.385     0.457 -39.53 -39.53  +0.00  +0.00  +0.00
       811     294.5293     93.73753     508.0966      11.2139     53.0680     35.9746   7.6763934e-01   1.4334509e+00   4.8144549e-01     1.204     0.813 -17.94 -17.94  +0.00  +0.00  +0.00
       812     196.0789     68.43915     507.8936      11.2139    355.2762     40.1745   1.2148454e+00   2.1225226e+00   7.9781967e-01     0.969     0.663 -20.66 -20.66  +0.00  +0.00  +0.00
       813     540.4423     109.5513     507.8564      11.2139    146.0698     41.0196   7.7974367e-01   2.9175979e-01   2.9727462e-01     2.000     1.103 -74.33 -74.33  +0.00  +0.00  +0.00
       814     96.00732     59.98206     507.6933      11.2139    270.7832     36.3018   6.9974953e-01   4.9136782e+00   6.8514526e-01     1.220     0.450  -4.62  -4.62  +0.00  +0.00  +0.00
       815     798.5902     138.7447      508.787      11.2139      9.6136     32.8540   5.2593762e-01   2.9924533e-01   8.5474238e-02     1.852     1.369 -79.67 -79.67  +0.00  +0.00  +0.00
       816     64.36356     50.66084     506.3276      11.2139    299.9864    509.2078   3.2914035e+00   2.2237921e+00   2.2727003e+00     0.816     0.499 -57.58 -57.58  +0.00  +0.00  +0.00
       817     93.08762     45.67816     508.1082      11.2139    198.8104    508.9514   5.5186248e+00   7.6443543e+00   1.1277719e+01     1.089     0.285 -39.66 -39.66  +0.00  +0.00  +0.00
       818     143.9038     68.13352     507.4072      11.2139    483.8193     31.1700   2.5262785e+00   1.4830310e+00   3.0660708e+00     1.611     0.525 -54.40 -54.40  +0.00  +0.00  +0.00
       819     90.95206     45.65945     507.8852      11.2139    373.4579     32.4976   4.0320668e+00   4.0035906e+00  -2.3744667e-01     0.506     0.492  48.42  48.42  +0.00  +0.00  +0.00
       820     637.5336     145.3729     507.8145      11.2139    124.3698     30.8124   7.8540057e-01   9.7729665e-01  -6.7805517e-01     1.375     0.900  37.10  37.10  +0.00  +0.00  +0.00
       821      143.948     71.73018     507.8868      11.2139    329.9672     44.9885   2.2674665e+00   4.9535441e+00   4.5411239e+00     1.014     0.400 -29.70 -29.70  +0.00  +0.00  +0.00
       822     276.5316     90.93581     507.8985      11.2139    368.0148     30.2458   1.3144627e+00   1.7471623e+00   1.7335829e+00     1.253     0.642 -37.99 -37.99  +0.00  +0.00  +0.00
       823     153.7419     60.36585     507.8604      11.2139    301.0962     30.9820   1.5337259e+00   1.9677981e+00  -9.4508302e-01     0.901     0.664  32.67  32.67  +0.00  +0.00  +0.00
       824     55.53397     55.33953      507.867      11.2139     53.7534     29.6867   2.2942760e+00   2.0360441e+00   1.2718949e-01     0.703     0.658 -76.89 -76.89  +0.00  +0.00  +0.00
       825     288.9949     75.92274     507.9415      11.2139    313.2189     28.7839   2.4579995e+00   2.4059772e+00   1.4874010e+00     0.770     0.561 -46.00 -46.00  +0.00  +0.00  +0.00
       826     111.8032      71.5507     507.6524      11.2139    250.8886     28.7376   6.7481953e-01   1.4142537e+00  -5.4700536e-01     1.308     0.815  18.25  18.25  +0.00  +0.00  +0.00
       827     185.2727     68.37596     507.7672      11.2139    103.2834     27.4408   1.3586192e+00   1.7794983e+00   1.0477290e+00     0.998     0.685 -34.06 -34.06  +0.00  +0.00  +0.00
       828     503.5319     97.24677     508.9312      11.2139      3.1647     26.8999   7.5423735e-01   9.0035510e-01  -1.6340274e-01     1.180     1.033  24.10  24.10  +0.00  +0.00  +0.00
       829     98.14688     55.64668     507.6291      11.2139    241.3156     25.3374   1.9158307e+00   2.6447597e+00   3.3916533e+00     1.354     0.499 -38.94 -38.94  +0.00  +0.00  +0.00
       830     167.6157     51.46963     507.7242      11.2139     88.8252     25.7612   4.4168911e+00   4.9184284e+00   7.2796097e+00     0.991     0.347 -43.03 -43.03  +0.00  +0.00  +0.00
       831     325.3411     91.15025     507.7356      11.2139    113.0252     24.6408   5.1380146e-01   1.3732110e+00   3.0375728e-01     1.432     0.845  -9.73  -9.73  +0.00  +0.00  +0.00
       832     275.5596     82.21633     507.7684      11.2139    288.0063     29.5117   8.1362265e-01   5.0958047e+00   1.8865637e+00     1.275     0.435 -11.89 -11.89  +0.00  +0.00  +0.00
       833     130.3414     46.00323     508.1989      11.2139    434.0308     23.4851   4.0299573e+00   8.7057533e+00   8.7062445e+00     0.837     0.297 -30.88 -30.88  +0.00  +0.00  +0.00
       834     296.6587     82.31892      507.932      11.2139    393.4150     23.4380   7.1033072e-01   4.0780535e+00   2.1058989e-01     1.189     0.495  -1.79  -1.79  +0.00  +0.00  +0.00
       835       158.08     60.39459     505.9846      11.2139    495.8345     22.3016   1.7066939e+00   2.2836316e+00  -1.0598444e+00     0.848     0.620  30.72  30.72  +0.00  +0.00  +0.00
       836      135.811     55.91677     508.1864      11.2139     27.6964     21.6515   2.3280663e+00   2.5129845e+00   2.3486698e+00     0.897     0.527 -42.75 -42.75  +0.00  +0.00  +0.00
       837     80.74451     50.79002     507.6115      11.2139    273.1859     22.4177   6.8823156e+00   1.0472926e+00   1.0747703e+00     1.001     0.380 -84.78 -84.78  +0.00  +0.00  +0.00
       838      51.7912     45.31509     507.6252      11.2139    110.4389     20.0403   8.5442066e+00   2.1109123e+01   2.5631723e+01     1.344     0.185 -31.94 -31.94  +0.00  +0.00  +0.00
       839     223.2449     72.17102     507.9092      11.2139    105.5125     33.2612   8.7504166e-01   2.0865352e+00  -1.8936865e+00     1.674     0.620  28.70  28.70  +0.00  +0.00  +0.00
       840     213.8807     84.93049     507.6003      11.2139    118.0912     18.4935   6.0284519e-01   1.3445412e+00   1.8453653e-01     1.300     0.859  -6.99  -6.99  +0.00  +0.00  +0.00
       841     323.3978     79.33971     507.4079      11.2139     71.1671     18.2076   1.3102331e+00   1.0781597e+00   1.6269064e+00     1.638     0.704 -49.06 -49.06  +0.00  +0.00  +0.00
       842     137.0663     55.92575     507.5624      11.2139    148.2806     17.2832   2.7409449e+00   4.0115170e+00  -5.4868388e+00     1.336     0.402  38.48  38.48  +0.00  +0.00  +0.00
       843     348.7558     82.57169      507.541      11.2139    102.6414     17.6451   4.1982922e-01   2.5781317e+00  -8.2982063e-02     1.545     0.623   1.10   1.10  +0.00  +0.00  +0.00
       844     255.5463     82.11891     507.0741      11.2139    198.1448     17.3356   8.0354857e-01   2.2021537e+00   1.2220925e+00     1.320     0.641 -20.57 -20.57  +0.00  +0.00  +0.00
       845     116.3612     45.88151     506.6143      11.2139     75.0277    509.2703   2.1677699e+00   5.0728908e+00   1.6438089e-01     0.680     0.444  -1.62  -1.62  +0.00  +0.00  +0.00
       846     152.7026     56.03747      506.558      11.2139    402.1592    508.3152   1.1325014e+00   5.7696738e+00   2.2690191e+00     1.072     0.407 -13.04 -13.04  +0.00  +0.00  +0.00
       847     94.53369      50.8985     506.6081      11.2139    371.8689    507.9274   2.1115801e+00   2.9374127e+00   1.8536495e+00     0.814     0.532 -32.99 -32.99  +0.00  +0.00  +0.00
       848     78.58447     45.55098     507.9764      11.2139    373.5075     12.5041   8.0598092e-01   4.0034151e+00   1.0066572e-01     1.114     0.500  -0.90  -0.90  +0.00  +0.00  +0.00
       849     133.5925     60.23219     506.3837      11.2139    289.5735    506.8962   1.2183450e+00   4.2224383e+00   2.9707685e+00     1.283     0.455 -22.34 -22.34  +0.00  +0.00  +0.00
       850     126.8319      45.9727     507.1878      11.2139    509.1946    504.7690   2.0774958e+00   7.9076724e+00   4.3516650e+00     0.859     0.340 -18.37 -18.37  +0.00  +0.00  +0.00
       851     159.1558     71.81493     508.1807      11.2139    234.3476    501.7106   4.0559411e+00   1.0044507e+00  -3.3788331e+00     1.985     0.456  66.04  66.04  +0.00  +0.00  +0.00
       852     175.0315     64.52963     507.9238      11.2139    100.5199     33.2429   8.0603725e-01   3.5901141e+00   2.3274832e+00     1.614     0.499 -19.95 -19.95  +0.00  +0.00  +0.00
       853     168.2781     56.14854     508.1898      11.2139    217.6315    504.0255   1.1029100e+00   4.1203971e+00   2.1465440e+00     1.147     0.473 -17.71 -17.71  +0.00  +0.00  +0.00
       854     133.7384     60.23315     506.1556      11.2139    412.3457    503.1346   7.0627379e-01   2.8563111e+00   7.7228647e-01     1.251     0.585  -9.88  -9.88  +0.00  +0.00  +0.00
       855     97.17477     50.91925     506.6759      11.2139     15.7945    503.3915   1.9279935e+00   4.6244202e+00   1.8140144e+00     0.778     0.452 -16.97 -16.97  +0.00  +0.00  +0.00
       856     157.0287     64.41794     507.2166      11.2139     63.9808     13.1252   7.7221298e-01   3.3225367e+00   1.1031227e+00     1.233     0.539 -11.70 -11.70  +0.00  +0.00  +0.00
       857     143.9082     55.97466     506.3451      11.2139    316.1758    501.8353   2.3110156e+00   2.4456298e+00   1.4870661e+00     0.783     0.566 -42.41 -42.41  +0.00  +0.00  +0.00
       858     383.9001     117.8486     507.8918      11.2139    179.0194    501.1023   3.5692397e-01   9.3068331e-01  -5.1755214e-01     1.971     0.985  21.03  21.03  +0.00  +0.00  +0.00
       859     263.9352      68.8346     506.4326      11.2139    358.3696    500.8439   1.2200725e+00   2.2394378e+00  -6.0899264e-01     0.938     0.656  15.43  15.43  +0.00  +0.00  +0.00
       860     142.9995     46.11316     506.6964      11.2139     89.2465    501.0308   5.3868446e+00   2.0918450e+00   1.7091735e-01     0.692     0.431 -88.52 -88.52  +0.00  +0.00  +0.00
       861      380.306     94.10286     506.2148      11.2139    453.7589    499.9812   2.1417222e+00   3.8681512e+00   4.2019014e+00     1.168     0.435 -33.83 -33.83  +0.00  +0.00  +0.00
       862     77.15576     45.53843       507.05      11.2139    498.2586    499.2038   4.4944067e+00   4.3273821e+00   7.2873640e+00     1.142     0.352 -45.66 -45.66  +0.00  +0.00  +0.00
       863     84.24854      50.8176     506.7272      11.2139      6.6068    498.2370   4.4732728e+00   1.9540476e+00   1.4846075e+00     0.756     0.462 -74.74 -74.74  +0.00  +0.00  +0.00
       864     286.9834     65.21989     506.7375      11.2139     68.5311    496.9954   7.8297296e+00   4.0137515e+00   7.8254218e+00     0.798     0.312 -58.00 -58.00  +0.00  +0.00  +0.00
       865     166.5652     56.13634     508.1762      11.2139    216.0865    500.8365   6.7246109e-01   7.3185587e+00  -1.3901243e-01     1.220     0.370   0.60   0.60  +0.00  +0.00  +0.00
