#   1 NUMBER                 Running object number                                     
#   2 FLUX_ISO               Isophotal flux                                             [count]
#   3 FLUXERR_ISO            RMS error for isophotal flux                               [count]
#   4 BACKGROUND             Background at centroid position                            [count]
#   5 THRESHOLD              Detection threshold above background                       [count]
#   6 X_IMAGE                Object position along x                                    [pixel]
#   7 Y_IMAGE                Object position along y                                    [pixel]
#   8 CXX_IMAGE              Cxx object ellipse parameter                               [pixel**(-2)]
#   9 CYY_IMAGE              Cyy object ellipse parameter                               [pixel**(-2)]
#  10 CXY_IMAGE              Cxy object ellipse parameter                               [pixel**(-2)]
#  11 A_IMAGE                Profile RMS along major axis                               [pixel]
#  12 B_IMAGE                Profile RMS along minor axis                               [pixel]
#  13 THETA_IMAGE            Position angle (CCW/x)                                     [deg]
#  14 THETA_WORLD            Position angle (CCW/world-x)                               [deg]
#  15 THETA_SKY              Position angle (east of north) (native)                    [deg]
#  16 THETA_J2000            Position angle (east of north) (J2000)                     [deg]
#  17 THETA_B1950            Position angle (east of north) (B1950)                     [deg]
         1     518.1818      99.8582     508.4773     15.69946    445.9887     20.2859   9.7316283e-01   9.5910370e-01  -1.0770838e+00     1.529     0.815  45.37  45.37  +0.00  +0.00  +0.00
         2     621.4486     102.7486     508.2256     15.69946    423.8157      6.9367   5.0222409e-01   9.3437994e-01  -3.2801053e-01     1.496     1.005  18.60  18.60  +0.00  +0.00  +0.00
         3      600.537     109.7705     508.1956     15.69946    418.5135      4.1717   4.5022824e-01   9.5491493e-01  -8.4668905e-01     2.184     0.915  29.60  29.60  +0.00  +0.00  +0.00
         4     264.1591     72.39742     508.4569     15.69946     15.9583     13.5123   1.0241511e+00   2.2435391e+00   1.5563822e+00     1.245     0.618 -25.96 -25.96  +0.00  +0.00  +0.00
         5     50.25626     45.30153     507.1018     15.69946     55.7598     10.0318   5.4836240e+00   2.0739920e+00  -1.7338783e-01     0.695     0.427  88.54  88.54  +0.00  +0.00  +0.00
         6     387.2887     82.75813     507.0249     15.69946     84.4323      6.8867   5.1188046e-01   3.9663239e+00  -1.2135752e+00     1.565     0.496   9.68   9.68  +0.00  +0.00  +0.00
         7     184.1681      68.3695     508.0949     15.69946    362.2093      3.4089   2.0116260e+00   4.5714831e+00  -1.8689430e+00     0.765     0.453  18.07  18.07  +0.00  +0.00  +0.00
         8      437.684     79.91383     506.8197     15.69946     26.2937    488.9254   9.2672944e-01   1.2628105e+00  -1.9269615e-01     1.053     0.881  14.91  14.91  +0.00  +0.00  +0.00
         9     292.8891     75.94325      507.282     15.69946    158.5556    487.6169   3.6484528e-01   4.9060369e+00   9.9223506e-01     1.792     0.449  -6.16  -6.16  +0.00  +0.00  +0.00
        10     239.3681     72.26032     506.8978     15.69946    382.4245    484.6967   1.3010988e+00   1.7275263e+00   1.5056612e+00     1.169     0.660 -37.09 -37.09  +0.00  +0.00  +0.00
        11     225.3288     64.84066     508.0852     15.69946    236.5089    481.3416   1.5232308e+00   9.2066902e-01  -8.2816052e-01     1.187     0.759  63.02  63.02  +0.00  +0.00  +0.00
        12     56.74512      45.3588     507.0374     15.69946    495.0275    476.9681   2.6580198e+00   2.6355941e+00   2.4798234e+00     0.843     0.507 -45.26 -45.26  +0.00  +0.00  +0.00
        13      515.858     80.30416     506.9635     15.69946      4.2545    474.9437   1.4548078e+00   2.4450955e+00  -3.3057132e+00     2.110     0.522  36.66  36.66  +0.00  +0.00  +0.00
        14      123.735     45.94575     507.9194     15.69946    187.1628    475.7956   1.9726739e+00   8.3336897e+00   4.1513033e+00     0.859     0.334 -16.56 -16.56  +0.00  +0.00  +0.00
        15      116.473     45.88248      506.393     15.69946    440.4750    471.5117   4.0160127e+00   4.0081882e+00   3.1052899e-01     0.509     0.490 -45.72 -45.72  +0.00  +0.00  +0.00
        16     120.0226     51.09842     507.0148     15.69946     18.1911    469.6061   1.9513121e+00   4.6703339e+00   1.9391499e+00     0.781     0.448 -17.75 -17.75  +0.00  +0.00  +0.00
        17     215.4955     64.77997     506.9911     15.69946    460.2462    468.3660   1.1576288e+00   2.3000877e+00  -7.3944116e-01     0.977     0.644  16.46  16.46  +0.00  +0.00  +0.00
        18     143.4066     46.11669     506.8339     15.69946    417.0000    460.5036   4.0051298e+00   7.7294540e+00   7.7294555e+00     0.796     0.314 -32.14 -32.14  +0.00  +0.00  +0.00
        19     193.0984     56.32508     507.0662     15.69946    130.4951    460.4881   1.5610110e+00   5.6524692e+00   3.2099783e+00     0.997     0.401 -19.06 -19.06  +0.00  +0.00  +0.00
        20     94.33759      45.6891     507.9084     15.69946    198.5307    458.4575   4.0161366e+00   4.0301194e+00   1.2413725e-01     0.502     0.495 -41.79 -41.79  +0.00  +0.00  +0.00
        21     118.5577     51.08695     507.1095     15.69946    146.5999    457.7739   4.3848424e+00   7.7980357e-01  -8.2534504e-01     1.168     0.475  83.55  83.55  +0.00  +0.00  +0.00
        22     269.2338     68.86538     507.2591     15.69946    325.4836    437.5446   1.2204547e+00   1.7444165e+00   2.4742766e-01     0.916     0.751 -12.64 -12.64  +0.00  +0.00  +0.00
        23     389.3797     76.44978     506.6438     15.69946    434.0431    448.7839   2.4137931e+00   3.4805110e+00   3.3706336e+00     0.921     0.461 -36.22 -36.22  +0.00  +0.00  +0.00
        24     142.1608     46.10588        506.9     15.69946    423.5196    440.2488   1.9896896e+00   1.3492699e+01   8.0503283e+00     1.178     0.260 -17.49 -17.49  +0.00  +0.00  +0.00
        25     557.4066     94.85266     507.1544     15.69946    150.6478    440.1612   3.5426459e-01   1.9112957e+00   1.5939636e-02     1.680     0.723  -0.29  -0.29  +0.00  +0.00  +0.00
        26     144.8717     60.30704     507.0662     15.69946    141.0314    434.8575   9.4302320e-01   2.5017171e+00  -4.6151295e-02     1.030     0.632   0.85   0.85  +0.00  +0.00  +0.00
        27     224.9832     68.60787     507.4706     15.69946    457.3092    433.8615   1.0689063e+00   3.4474580e+00   2.5393891e+00     1.389     0.500 -23.44 -23.44  +0.00  +0.00  +0.00
        28     376.8206     82.70753     507.0734     15.69946    135.8674    431.7325   3.2935289e-01   3.0430853e+00   3.4896699e-01     1.773     0.572  -3.66  -3.66  +0.00  +0.00  +0.00
        29     119.8726     45.91211     507.6086     15.69946    250.0136    430.5067   4.0253758e+00   7.4947367e+00   7.5006075e+00     0.784     0.318 -32.59 -32.59  +0.00  +0.00  +0.00
        30     122.9453     45.93888     507.0949     15.69946    131.6625    429.2628   1.9404116e+00   6.7282634e+00   3.4878333e+00     0.854     0.370 -18.04 -18.04  +0.00  +0.00  +0.00
        31     57.40753     50.60589     507.4252     15.69946    378.2196    426.7832   3.0899305e+00   3.0988672e+00   3.9677694e+00     0.949     0.444 -44.94 -44.94  +0.00  +0.00  +0.00
        32     335.5676     72.79089     507.1237     15.69946    125.4492    424.9778   3.2049915e-01   2.7090642e+00  -2.8176647e-01     1.790     0.607   3.36   3.36  +0.00  +0.00  +0.00
        33     610.1611     97.68438     507.4886     15.69946    287.6967    416.4228   4.8484248e-01   1.3375955e+00  -4.4620442e-01     1.525     0.847  13.81  13.81  +0.00  +0.00  +0.00
        34     411.2067     79.78119      507.489     15.69946    283.7691    413.5999   1.0021242e+00   1.4308987e+00  -7.8580421e-01     1.140     0.775  30.69  30.69  +0.00  +0.00  +0.00
        35     813.4268     112.7958     507.4886     15.69946    298.9243    423.1292   3.4750628e-01   1.0451504e+00  -2.7544004e-01     1.764     0.966  10.77  10.77  +0.00  +0.00  +0.00
        36     836.8663     105.9841     507.4884     15.69946    294.1270    419.8408   5.1973212e-01   1.2143030e+00  -9.5525235e-01     1.902     0.828  26.99  26.99  +0.00  +0.00  +0.00
        37     123.3033     55.82722     507.5457     15.69946    263.4885    416.9612   1.3047464e+00   3.4335327e+00   1.3144723e+00     0.946     0.526 -15.85 -15.85  +0.00  +0.00  +0.00
        38     147.0197     51.30931     507.6236     15.69946    249.1867    414.5979   1.9875327e+00   4.7786684e+00   2.2184763e+00     0.790     0.440 -19.24 -19.24  +0.00  +0.00  +0.00
        39     440.5871     94.35874     507.1112     15.69946    106.3347    413.5667   9.6045643e-01   1.3472950e+00  -9.7711629e-01     1.261     0.772  34.20  34.20  +0.00  +0.00  +0.00
        40     171.9498     46.36361     507.5356     15.69946    265.2435    412.7500   2.0909488e+00   7.4606647e+00   4.2179227e+00     0.857     0.349 -19.07 -19.07  +0.00  +0.00  +0.00
        41     214.9868     64.77683     506.8555     15.69946     83.1394    400.3493   5.6114763e-01   3.7892017e+00  -4.1038126e-01     1.351     0.513   3.62   3.62  +0.00  +0.00  +0.00
        42     895.9897     127.7105     506.9507     15.69946     91.1178    405.4675   1.5882714e+00   1.0798254e+00  -1.4595394e+00     1.335     0.689  54.60  54.60  +0.00  +0.00  +0.00
        43     214.0551     56.47371     507.8149     15.69946    224.5638    408.4685   1.5205452e+00   5.6949186e+00   3.1955993e+00     1.011     0.400 -18.72 -18.72  +0.00  +0.00  +0.00
        44     88.12631     50.84812     507.4353     15.69946    400.4229    406.6291   8.5049305e+00   2.0864058e+00  -6.0649157e+00     1.066     0.321  68.31  68.31  +0.00  +0.00  +0.00
        45     179.8356     51.56451     507.5554     15.69946    262.1675    401.6368   2.1458771e+00   4.8873448e+00   2.1999674e+00     0.754     0.435 -19.37 -19.37  +0.00  +0.00  +0.00
        46     440.7564     94.35946      507.459     15.69946    170.7879    383.9299   7.3407173e-01   8.9072651e-01  -5.3237426e-01     1.367     0.958  36.80  36.80  +0.00  +0.00  +0.00
        47     59.35504      45.3818     507.4781     15.69946    288.5059    389.0162   7.3188133e+00   4.0368872e+00  -7.3199525e+00     0.775     0.321  57.07  57.07  +0.00  +0.00  +0.00
        48     286.1758     68.96372     507.6446     15.69946    187.6783    386.4329   2.5210595e+00   2.0000730e+00   3.2479482e+00     1.274     0.506 -49.56 -49.56  +0.00  +0.00  +0.00
        49     138.8511     46.07716     507.6645     15.69946    241.2741    383.4340   1.7378030e+00   4.5124974e+00   1.7521003e+00     0.821     0.458 -16.14 -16.14  +0.00  +0.00  +0.00
        50     109.3521     45.82036     507.1678     15.69946     98.5052    381.4687   4.0020537e+00   4.0173488e+00   1.6157949e-01     0.505     0.494 -42.30 -42.30  +0.00  +0.00  +0.00
        51     407.3994     88.71871     507.4049     15.69946    159.7607    378.0318   8.1312615e-01   2.1397448e+00  -2.1522427e+00     2.170     0.604  29.18  29.18  +0.00  +0.00  +0.00
        52     1312.986     153.9015     507.3664     15.69946    150.9202    372.3411   4.5833611e-01   9.9209017e-01  -6.6987067e-01     1.835     0.931  25.73  25.73  +0.00  +0.00  +0.00
        53     215.6728     64.78107     507.0959     15.69946     85.5416    374.5119   8.6002988e-01   4.0022640e+00   5.1231864e-03     1.078     0.500  -0.05  -0.05  +0.00  +0.00  +0.00
        54     209.6268     51.79509     506.9005     15.69946    426.4028    371.8480   4.6833959e+00   2.1348534e+00   2.1197524e+00     0.756     0.444 -70.12 -70.12  +0.00  +0.00  +0.00
        55     561.5491     97.48512     507.3462     15.69946    139.1625    365.2034   4.3381661e-01   1.7799017e+00  -1.0092643e+00     1.940     0.716  18.43  18.43  +0.00  +0.00  +0.00
        56     264.6216     68.83859     507.3492     15.69946    132.9457    360.9349   1.6187462e+00   1.5943005e+00  -1.8224335e+00     1.199     0.630  45.38  45.38  +0.00  +0.00  +0.00
        57     327.0123     65.46494     507.3439     15.69946    128.3459    359.8133   4.8694819e-01   6.0134602e+00  -8.9334041e-01     1.489     0.407   4.59   4.59  +0.00  +0.00  +0.00
        58     345.2558     69.30555     507.1942     15.69946     88.2919    361.0900   1.2641090e+00   2.0004866e+00   6.5191591e-01     0.936     0.686 -20.76 -20.76  +0.00  +0.00  +0.00
        59     116.4547     51.07048       507.16     15.69946     80.7715    361.0239   2.2887053e+00   3.1399996e+00   2.3671589e+00     0.829     0.502 -35.11 -35.11  +0.00  +0.00  +0.00
        60     164.2789     64.46294     507.5988     15.69946    248.8779    358.8822   1.7793542e+00   1.8134220e+00   8.0154377e-01     0.847     0.675 -43.78 -43.78  +0.00  +0.00  +0.00
        61     250.2183     68.75484      507.111     15.69946    467.9641    356.7010   2.5762737e+00   2.4962745e+00   4.2171159e+00     1.530     0.464 -45.54 -45.54  +0.00  +0.00  +0.00
        62     196.5121     51.69371     507.1432     15.69946    406.3697    354.8273   4.9118500e+00   2.1492345e+00   2.3094125e+00     0.760     0.433 -70.05 -70.05  +0.00  +0.00  +0.00
        63     138.4433     51.24241     507.2132     15.69946     13.6692    353.9947   1.4619106e+00   4.1514583e+00  -2.9519045e+00     1.111     0.456  23.83  23.83  +0.00  +0.00  +0.00
        64     326.9244     72.74339     507.3449     15.69946    116.3594    352.0227   1.3737971e+00   1.2989178e+00  -7.5170243e-01     1.021     0.764  47.84  47.84  +0.00  +0.00  +0.00
        65     309.3142     76.02972     507.5155     15.69946    266.6971    351.5147   1.3939586e+00   1.6969740e+00  -1.8500544e+00     1.282     0.635  40.35  40.35  +0.00  +0.00  +0.00
        66     104.1153     50.97374     507.3335     15.69946    323.1727    351.6257   2.0916519e+00   4.7782216e+00   2.0627081e+00     0.758     0.442 -18.76 -18.76  +0.00  +0.00  +0.00
        67     365.2311     79.55034     507.3192     15.69946     97.9398    341.8069   7.3307508e-01   1.1637375e+00   7.2660476e-01     1.379     0.854 -29.67 -29.67  +0.00  +0.00  +0.00
        68     382.7934      88.6077     507.3344     15.69946    107.8030    346.5810   1.4486395e+00   1.7164299e+00  -2.9276841e+00     2.980     0.572  42.39  42.39  +0.00  +0.00  +0.00
        69     546.2714      97.4224     507.3203     15.69946    104.2411    346.5872   9.6887112e-01   1.5532689e+00   2.2029856e-01     1.027     0.797 -10.33 -10.33  +0.00  +0.00  +0.00
        70     169.1158     68.28138     507.5633     15.69946    254.3477    346.5417   1.1765282e+00   1.4129076e+00   3.1814831e-01     0.955     0.818 -26.69 -26.69  +0.00  +0.00  +0.00
        71     300.0881     75.98116     507.5754     15.69946    248.7270    342.4043   5.2840501e-01   1.9165102e+00  -5.6933922e-01     1.455     0.712  11.15  11.15  +0.00  +0.00  +0.00
        72     86.10318      50.8322     507.4484     15.69946    151.7924    341.2005   4.6707358e+00   4.6603684e+00  -7.2284584e+00     0.975     0.348  45.04  45.04  +0.00  +0.00  +0.00
        73     184.0289     56.26064     507.4151     15.69946    308.8272    339.8389   1.7724588e+00   4.3941135e+00   3.9292879e+00     1.177     0.429 -28.14 -28.14  +0.00  +0.00  +0.00
        74     624.9038     95.13688     507.3306     15.69946     83.0049    332.7015   1.9895298e+00   1.1869256e+00  -1.4266982e+00     1.140     0.645  59.68  59.68  +0.00  +0.00  +0.00
        75     392.0005     79.68483     507.3148     15.69946     92.1976    338.7832   9.4573998e-01   1.4123236e+00  -9.1438800e-01     1.226     0.769  31.48  31.48  +0.00  +0.00  +0.00
        76     689.3567     105.4259     507.3208     15.69946     88.4312    335.6531   3.7822947e-01   1.2254461e+00  -5.2844393e-01     1.818     0.877  15.98  15.98  +0.00  +0.00  +0.00
        77     401.8475     99.39111     507.6327     15.69946    224.7912    327.4988   5.4481286e-01   8.5374445e-01  -7.0383853e-01     1.782     0.961  33.15  33.15  +0.00  +0.00  +0.00
        78     317.8488     79.31174     507.3504     15.69946     70.1377    326.3499   6.5639633e-01   6.0017142e+00   1.8709229e+00     1.418     0.403  -9.65  -9.65  +0.00  +0.00  +0.00
        79     194.3156     46.55616     507.4254     15.69946    291.9915    319.4916   4.0091553e+00   7.7445335e+00   7.7480049e+00     0.797     0.313 -32.13 -32.13  +0.00  +0.00  +0.00
        80     294.9333      69.0145     507.6591     15.69946    207.9223    318.8354   1.0813054e+00   2.0245640e+00  -3.0057591e-01     0.972     0.699   8.84   8.84  +0.00  +0.00  +0.00
        81     257.6396      82.1291     507.4739     15.69946    115.2639    317.7550   2.3917139e+00   1.1161146e+00  -2.7693433e-01     0.953     0.645  83.88  83.88  +0.00  +0.00  +0.00
        82     152.7231     51.35376     507.2053     15.69946    386.9967    316.7806   3.1557791e+00   2.2641075e+00  -2.2749400e+00     0.820     0.504  55.70  55.70  +0.00  +0.00  +0.00
        83     348.7892     69.32594     507.3017     15.69946     49.5793    313.4975   9.2692596e-01   2.6007864e+00  -7.4238074e-01     1.086     0.611  11.96  11.96  +0.00  +0.00  +0.00
        84     632.9804     105.2117     507.4232     15.69946     42.4399    310.1769   3.2435462e-01   1.3442147e+00  -7.1017009e-01     2.167     0.829  17.43  17.43  +0.00  +0.00  +0.00
        85      143.402     51.28111     507.6306     15.69946    222.9717    312.0226   2.4796073e+00   5.1425357e+00   4.9575033e+00     1.001     0.389 -30.88 -30.88  +0.00  +0.00  +0.00
        86     328.9708     85.47082     507.6363     15.69946    205.3422    310.1699   1.5609944e+00   2.4538057e+00   2.1520102e+00     1.089     0.561 -33.73 -33.73  +0.00  +0.00  +0.00
        87     156.0674     60.38126     507.5239     15.69946     94.1493    306.7148   1.0940566e+00   2.1620979e+00   4.2393658e-01     0.974     0.674 -10.82 -10.82  +0.00  +0.00  +0.00
        88     94.02042     45.68633     508.1382     15.69946      8.7692    305.0389   5.6388583e+00   2.0309441e+00  -2.0540503e-01     0.702     0.421  88.37  88.37  +0.00  +0.00  +0.00
        89     175.3622      51.5298     507.5213     15.69946    183.2345    304.5967   2.1377509e+00   4.4132643e+00   1.4851142e+00     0.722     0.465 -16.57 -16.57  +0.00  +0.00  +0.00
        90     300.9897     79.22666     507.6647     15.69946     32.4235    303.4250   4.0498570e-01   1.9637313e+00  -5.7843536e-01     1.683     0.704  10.18  10.18  +0.00  +0.00  +0.00
        91     333.0621     88.38292     507.5775     15.69946     82.0421    301.8955   7.2231042e-01   2.8789086e+00   1.4447056e+00     1.410     0.568 -16.91 -16.91  +0.00  +0.00  +0.00
        92     241.0538     78.92348     508.0369     15.69946     12.9753    292.6182   7.4798393e-01   1.2332865e+00  -4.4139078e-01     1.228     0.871  21.14  21.14  +0.00  +0.00  +0.00
        93     491.3903     94.57386     507.7964     15.69946     26.1511    299.9575   6.2209147e-01   1.1379133e+00  -7.2083825e-01     1.513     0.869  27.21  27.21  +0.00  +0.00  +0.00
        94     505.8049     104.7271     507.8788     15.69946     21.5378    297.2162   7.5616241e-01   1.5999970e+00  -1.1846248e-01     1.153     0.790   4.00   4.00  +0.00  +0.00  +0.00
        95     136.8993     51.23036     507.6154     15.69946    140.1747    297.6241   2.0758219e+00   4.7143273e+00   1.9371152e+00     0.754     0.446 -18.14 -18.14  +0.00  +0.00  +0.00
        96     110.3316      55.7342     507.6544     15.69946    230.6443    295.5103   3.5834415e+00   2.1849124e+00   3.9249949e+00     1.117     0.449 -54.81 -54.81  +0.00  +0.00  +0.00
        97     129.8008      51.1749      507.601     15.69946    247.7830    293.7903   4.5368700e+00   4.6497455e+00   7.1709442e+00     0.996     0.350 -44.55 -44.55  +0.00  +0.00  +0.00
        98     281.5137     72.49325     507.6279     15.69946     74.2289    294.3168   7.0980448e-01   2.7054551e+00  -5.3775889e-01     1.218     0.604   7.54   7.54  +0.00  +0.00  +0.00
        99     69.75427     45.47337     507.6508     15.69946    157.4846    290.4974   4.0047436e+00   4.0010376e+00   1.2185051e-01     0.504     0.496 -45.87 -45.87  +0.00  +0.00  +0.00
       100     209.0547     60.73126     507.4066     15.69946    297.9801    288.7437   3.8036072e+00   2.0721717e+00   4.1390295e+00     1.200     0.439 -56.35 -56.35  +0.00  +0.00  +0.00
       101     138.9584     55.93928     507.5988     15.69946     62.5338    289.1579   1.7315856e+00   3.5219150e+00   3.0945871e+00     1.092     0.476 -29.97 -29.97  +0.00  +0.00  +0.00
       102     210.1639     60.73856     507.2159     15.69946    475.4250    284.7130   1.6373217e+00   2.8414965e+00   2.1352134e+00     0.993     0.537 -30.29 -30.29  +0.00  +0.00  +0.00
       103     106.7513     50.99442     507.2316     15.69946    382.3766    285.2308   4.6724281e+00   1.9260095e+00  -1.7836744e+00     0.776     0.450  73.50  73.50  +0.00  +0.00  +0.00
       104     126.2853     51.14742     507.7588     15.69946    148.0152    283.0237   5.0557642e+00   2.5741618e+00  -5.1466761e+00     1.022     0.387  57.87  57.87  +0.00  +0.00  +0.00
       105     171.7967     64.50957     507.4066     15.69946    301.4910    281.2531   1.1032933e+00   3.1153648e+00   1.8343148e+00     1.156     0.537 -21.18 -21.18  +0.00  +0.00  +0.00
       106     267.4669     61.11477     507.7798     15.69946     36.2057    274.4670   1.0294076e+00   4.3765554e+00   1.2159019e+00     1.041     0.472  -9.98  -9.98  +0.00  +0.00  +0.00
       107     150.9641      46.1822     507.8823     15.69946    145.4952    271.4974   4.0113983e+00   4.0111442e+00   4.2076761e-01     0.513     0.487 -45.02 -45.02  +0.00  +0.00  +0.00
       108     160.2676     56.09145     507.9828     15.69946     97.3255    270.6212   2.4520950e+00   2.4638023e+00  -2.4501431e+00     0.901     0.521  44.86  44.86  +0.00  +0.00  +0.00
       109        202.7     56.39323     507.3279     15.69946    499.9918    270.4922   1.5867007e+00   4.0020885e+00   8.3871253e-02     0.794     0.500  -0.99  -0.99  +0.00  +0.00  +0.00
       110     431.1814     82.97002     507.9081     15.69946    207.8781    270.1240   1.9332529e+00   1.8380378e+00  -8.7855184e-01     0.832     0.655  48.09  48.09  +0.00  +0.00  +0.00
       111     73.49481     45.50626      507.165     15.69946    493.4671    263.4988   4.0229940e+00   4.0056171e+00  -3.0006948e-01     0.509     0.490  46.66  46.66  +0.00  +0.00  +0.00
       112     230.1926     68.63824     507.0145     15.69946    413.1299    259.8665   1.0825371e+00   2.0392101e+00   3.3287650e-01     0.974     0.695  -9.59  -9.59  +0.00  +0.00  +0.00
       113     106.5581     55.70712     508.0108     15.69946     17.8248    256.6459   1.1383973e+00   5.4731698e+00   2.2389548e+00     1.074     0.417 -13.66 -13.66  +0.00  +0.00  +0.00
       114     359.0673     82.62162     508.1163     15.69946     94.4126    253.5909   9.6450722e-01   1.1787837e+00  -1.1888840e+00     1.462     0.773  39.89  39.89  +0.00  +0.00  +0.00
       115     115.8246     51.06554     508.0935     15.69946      4.9564    255.0000   4.7529972e-01   1.2000005e+01  -0.0000000e+00     1.450     0.289   0.00   0.00  +0.00  +0.00  +0.00
       116     316.1904     82.41377     507.6768     15.69946    173.5806    250.7125   1.8346002e+00   2.0376656e+00  -2.6573298e+00     1.287     0.553  42.82  42.82  +0.00  +0.00  +0.00
       117     106.7414     45.79757      507.885     15.69946    144.2296    247.7498   2.0823789e+00   7.5284905e+00   4.2794585e+00     0.863     0.348 -19.08 -19.08  +0.00  +0.00  +0.00
       118     119.8245     55.80229     507.9881     15.69946     33.8692    245.3539   1.1440914e+00   5.6859865e+00  -2.4506218e+00     1.095     0.408  14.17  14.17  +0.00  +0.00  +0.00
       119     240.1241     60.93555     507.7963     15.69946    157.4033    241.0919   2.6984975e+00   1.2937391e+00   1.9570695e+00     1.124     0.559 -62.84 -62.84  +0.00  +0.00  +0.00
       120     267.7683     68.85687     508.2722     15.69946     71.9778    240.0368   1.5492241e+00   1.6198449e+00   1.2012950e-01     0.812     0.778 -29.77 -29.77  +0.00  +0.00  +0.00
       121     170.1688     56.16201     508.0721     15.69946     24.7396    238.8098   1.9597747e+00   2.3721893e+00   4.5449293e-01     0.733     0.636 -23.89 -23.89  +0.00  +0.00  +0.00
       122       128.76     45.98948     507.8932     15.69946    145.4753    234.5395   4.0188398e+00   4.0341458e+00   3.8144508e-01     0.511     0.487 -43.85 -43.85  +0.00  +0.00  +0.00
       123     343.7588     91.23104     507.9498     15.69946    132.2114    227.4545   9.1744632e-01   6.4627218e-01  -5.5819176e-02     1.247     1.042  84.18  84.18  +0.00  +0.00  +0.00
       124     168.9847     46.33802     508.1541     15.69946     51.0213    227.7378   2.1685116e+00   5.1710367e+00  -1.2495269e-01     0.679     0.440   1.19   1.19  +0.00  +0.00  +0.00
       125     276.5854     68.90807     507.4419     15.69946    294.9780    223.4297   1.7526366e+00   2.0154376e+00   2.7453620e+00     1.407     0.554 -42.27 -42.27  +0.00  +0.00  +0.00
       126     180.5673     60.54334     508.2198     15.69946     42.7428    224.4103   1.0021838e+00   4.2462387e+00  -6.7392546e-01     1.017     0.483   5.87   5.87  +0.00  +0.00  +0.00
       127     97.76202     45.71907     508.2169     15.69946     95.7726    222.0004   5.6918755e+00   2.1446481e+00  -2.3788519e-03     0.683     0.419  89.98  89.98  +0.00  +0.00  +0.00
       128     136.9123     51.23046     507.7924     15.69946    197.6065    221.5909   1.9959862e+00   8.4138956e+00   5.8436399e+00     1.075     0.324 -21.16 -21.16  +0.00  +0.00  +0.00
       129     132.8106      55.8953     506.8448     15.69946    483.0222    218.8349   2.3310111e+00   3.2504842e+00   3.2981746e+00     0.963     0.471 -37.21 -37.21  +0.00  +0.00  +0.00
       130     146.2165     51.30305      508.357     15.69946     33.1807    218.1884   3.2590814e+00   3.2308707e+00  -4.3443475e+00     0.965     0.430  45.19  45.19  +0.00  +0.00  +0.00
       131     5.870148     44.90791     507.3314     15.69946    333.5219    217.0138   7.8511753e+00   4.0026593e+00  -7.8445382e+00     0.801     0.312  58.07  58.07  +0.00  +0.00  +0.00
       132     559.4161     102.5068     508.0811     15.69946    110.4597    213.7438   1.0558125e+00   3.1607759e+00  -1.9192728e+00     1.209     0.532  21.18  21.18  +0.00  +0.00  +0.00
       133     115.3978     45.87311     507.7779     15.69946    242.4866    213.4721   4.0043178e+00   4.0139031e+00   1.5150006e-01     0.504     0.495 -43.19 -43.19  +0.00  +0.00  +0.00
       134      185.416      56.2705     507.3386     15.69946    323.8615    212.1806   2.2720206e+00   2.3792784e+00   1.3735906e+00     0.782     0.576 -42.77 -42.77  +0.00  +0.00  +0.00
       135     230.6638     87.91827     508.1747     15.69946    102.4422    208.9162   1.0602883e+00   5.7907432e-01   2.7158806e-01     1.357     0.955 -75.28 -75.28  +0.00  +0.00  +0.00
       136     424.9394     82.93991     508.5587     15.69946     19.9574    209.7120   1.9004055e+00   2.0106122e+00  -5.6965653e-02     0.727     0.704  13.67  13.67  +0.00  +0.00  +0.00
       137     136.3765     55.92081     506.9437     15.69946    440.1605    207.4951   4.4346242e+00   5.4106412e+00   8.7058535e+00     1.358     0.328 -41.80 -41.80  +0.00  +0.00  +0.00
       138     117.9171     45.89507     508.3619     15.69946     84.4776    207.5287   4.0107360e+00   4.0159025e+00  -2.0820218e-01     0.506     0.493  44.29  44.29  +0.00  +0.00  +0.00
       139     708.2437     114.6375     507.3488     15.69946    313.2477    206.5156   9.0997779e-01   1.0534378e+00  -7.4941730e-01     1.291     0.856  39.58  39.58  +0.00  +0.00  +0.00
       140     266.5409      65.0944     508.6214     15.69946     12.5633    205.1675   1.9262227e+00   1.4349149e+00  -2.6520216e+00     1.736     0.575  50.25  50.25  +0.00  +0.00  +0.00
       141     176.2735     56.20547     507.3081     15.69946    374.4897    203.5311   5.7891479e+00   1.4876972e+00   3.2613850e+00     1.032     0.397 -71.42 -71.42  +0.00  +0.00  +0.00
       142     500.4829     89.13741     508.4702     15.69946     78.2846    195.8632   1.3200923e+00   3.4104617e+00  -2.0900123e+00     1.062     0.510  22.50  22.50  +0.00  +0.00  +0.00
       143     89.34256     45.64535     508.5988     15.69946     19.0192    195.2256   1.9561808e+00   5.7246690e+00   9.6941337e-02     0.715     0.418  -0.74  -0.74  +0.00  +0.00  +0.00
       144     267.0636     79.05519     507.5341     15.69946    290.6656    193.1512   4.3871734e-01   2.3322525e+00  -5.8742332e-01     1.593     0.649   8.62   8.62  +0.00  +0.00  +0.00
       145     129.7565     45.99815     508.6231     15.69946     12.9881    196.4754   4.0237012e+00   7.8449168e+00   7.8566208e+00     0.799     0.312 -32.03 -32.03  +0.00  +0.00  +0.00
       146     321.7718     79.33152     507.6229     15.69946    284.2574    189.7205   2.1702492e+00   5.4325616e-01  -6.1695635e-01     1.433     0.670  79.62  79.62  +0.00  +0.00  +0.00
       147     316.9224     76.06973      507.434     15.69946    301.0045    184.9930   2.2556808e+00   2.3927143e+00   2.3204865e+00     0.928     0.536 -43.31 -43.31  +0.00  +0.00  +0.00
       148     239.0232     60.92833     507.0901     15.69946    441.5964    183.5426   4.4257307e+00   2.4935474e+00   5.5693741e+00     1.397     0.395 -54.57 -54.57  +0.00  +0.00  +0.00
       149     359.8229     79.52315     507.7878     15.69946    270.0566    181.7557   1.7711211e+00   7.4597436e-01   4.4684565e-01     1.196     0.742 -78.22 -78.22  +0.00  +0.00  +0.00
       150     207.2388     64.72897       507.91     15.69946    194.5283    180.5126   8.4185827e-01   4.0057650e+00   1.0445264e-01     1.090     0.500  -0.95  -0.95  +0.00  +0.00  +0.00
       151     250.0633     68.75394     507.8179     15.69946    264.2904    177.3364   8.6474168e-01   2.4593627e+00  -8.7632054e-01     1.153     0.624  14.40  14.40  +0.00  +0.00  +0.00
       152     103.2591     50.96702     508.5994     15.69946     36.1973    173.0140   2.3536708e+00   3.0455589e+00   2.3052495e+00     0.818     0.506 -36.65 -36.65  +0.00  +0.00  +0.00
       153     398.1518     88.67701     507.8305     15.69946    251.6674    170.3136   1.3124038e+00   1.2811085e+00  -1.5670679e+00     1.396     0.693  45.57  45.57  +0.00  +0.00  +0.00
       154     188.8631      46.5093     508.5961     15.69946     33.5349    169.4913   4.0399871e+00   4.0215011e+00  -5.7264763e-01     0.517     0.481  45.92  45.92  +0.00  +0.00  +0.00
       155     181.8321     51.57999      508.603     15.69946     29.2138    168.3946   2.0052490e+00   4.5264192e+00  -1.6523197e+00     0.754     0.458  16.62  16.62  +0.00  +0.00  +0.00
       156     143.3392     46.11611     507.8384     15.69946    242.4933    165.5000   4.0024738e+00   4.0017447e+00  -1.6712624e-01     0.505     0.495  45.12  45.12  +0.00  +0.00  +0.00
       157     164.4441     51.44497     507.8845     15.69946    172.5884    161.0029   1.6672225e+00   4.3231540e+00  -3.3191695e+00     1.072     0.442  25.67  25.67  +0.00  +0.00  +0.00
       158     673.9093     120.9268     507.8541     15.69946    225.8332    155.9205   1.0761117e+00   4.6570605e-01  -4.5050111e-01     1.598     0.932  71.79  71.79  +0.00  +0.00  +0.00
       159     308.5439     76.02567     507.3762     15.69946    352.7231    154.0372   8.4758025e-01   2.1340973e+00   7.6872408e-01     1.161     0.668 -15.43 -15.43  +0.00  +0.00  +0.00
       160     233.6218     75.63044     507.8596     15.69946    216.6950    150.4507   4.1519514e-01   9.8891509e-01  -6.4645755e-01     1.925     0.939  24.21  24.21  +0.00  +0.00  +0.00
       161     233.5582     60.89244     506.7346     15.69946    501.3155    146.9882   2.1377769e+00   1.9273891e+00   6.3596196e-02     0.721     0.683 -81.59 -81.59  +0.00  +0.00  +0.00
       162     753.9796     114.7969     507.8642     15.69946    201.3201    142.2138   8.9207929e-01   9.5161158e-01  -1.3366874e+00     1.989     0.793  43.72  43.72  +0.00  +0.00  +0.00
       163      88.8002     55.57946     507.2622     15.69946    394.1070    139.0143   9.5457119e-01   3.3920314e+00   1.0067940e+00     1.082     0.535 -11.22 -11.22  +0.00  +0.00  +0.00
       164     301.4347     88.23966     507.8642     15.69946    193.2733    136.5995   6.3135445e-01   1.0678982e+00  -4.0638846e-01     1.347     0.933  21.48  21.48  +0.00  +0.00  +0.00
       165     189.1521     56.29705     507.9073     15.69946    168.0037    133.5327   1.5791839e+00   4.0195918e+00   1.2440626e-01     0.796     0.499  -1.46  -1.46  +0.00  +0.00  +0.00
       166     106.3815     50.99152     508.1438     15.69946    134.3616    130.4173   2.0104413e+00   8.5930014e+00   6.0026255e+00     1.086     0.320 -21.18 -21.18  +0.00  +0.00  +0.00
       167     91.78296     45.66673     507.1406     15.69946    477.2556    129.0005   5.2497349e+00   7.2525563e+00   1.0502020e+01     1.051     0.294 -39.60 -39.60  +0.00  +0.00  +0.00
       168       379.17     69.50101     507.8642     15.69946    178.0076    128.2224   1.7496796e+00   2.1115122e+00  -2.8602998e+00     1.430     0.545  41.40  41.40  +0.00  +0.00  +0.00
       169     131.1192     46.00999     508.2451     15.69946    124.5209    127.5100   4.0089192e+00   4.0035276e+00  -1.7554411e-01     0.505     0.494  45.88  45.88  +0.00  +0.00  +0.00
       170     149.0587     51.32521     507.8642     15.69946    187.7954    123.8064   4.6846514e+00   4.6469412e+00   7.3608360e+00     1.007     0.346 -45.15 -45.15  +0.00  +0.00  +0.00
       171     219.8723     51.87416      507.218     15.69946    465.3614    122.9886   1.5196152e+00   4.0352573e+00  -2.9832649e+00     1.100     0.460  24.93  24.93  +0.00  +0.00  +0.00
       172     118.5202     67.98434     507.9562     15.69946    164.1309    121.4889   1.6028160e+00   6.9041508e-01   2.4728308e-02     1.204     0.790 -89.22 -89.22  +0.00  +0.00  +0.00
       173     244.1548     60.96201     507.8638     15.69946    210.1964    119.5404   2.6310534e+00   2.3472440e+00   3.1663589e+00     1.054     0.495 -47.56 -47.56  +0.00  +0.00  +0.00
       174     270.8465     68.87475     508.6493     15.69946     32.6494    119.2111   7.5202072e-01   3.0016437e+00   8.4909445e-01     1.218     0.570 -10.34 -10.34  +0.00  +0.00  +0.00
       175     226.1555     64.84576     507.6209     15.69946    294.8122    118.0320   1.7981249e+00   2.6549940e+00   2.6761527e+00     1.103     0.525 -36.12 -36.12  +0.00  +0.00  +0.00
       176     138.7328     46.07613     507.9809     15.69946    161.6278    116.7059   1.7498035e+00   7.5365057e+00   3.7346179e+00     0.913     0.352 -16.42 -16.42  +0.00  +0.00  +0.00
       177     233.0839     56.60833     508.0198     15.69946    157.1469    116.6570   1.1550378e+00   5.3892069e+00  -2.0971031e+00     1.049     0.421  13.17  13.17  +0.00  +0.00  +0.00
       178     185.0617     51.60503     508.5112     15.69946    104.1895    115.6141   1.9741186e+00   4.5147820e+00   1.5259545e+00     0.753     0.460 -15.49 -15.49  +0.00  +0.00  +0.00
       179     74.27557     50.73904     508.6989     15.69946     30.2305    112.3963   2.1713278e+00   4.7603946e+00  -2.2455804e+00     0.755     0.439  20.47  20.47  +0.00  +0.00  +0.00
       180     233.8685     68.65966     507.3258     15.69946    388.7066    110.7806   2.0396466e+00   1.6908878e+00   2.3790796e+00     1.228     0.571 -49.17 -49.17  +0.00  +0.00  +0.00
       181     254.9919     68.78262     508.1463     15.69946    140.9866    106.3264   1.8443134e+00   1.4756080e+00  -1.2949073e+00     1.007     0.655  52.95  52.95  +0.00  +0.00  +0.00
       182     196.3473     56.34815     508.6084     15.69946     38.8385    101.8442   2.2982810e+00   2.3748126e+00  -1.3551738e+00     0.777     0.576  43.38  43.38  +0.00  +0.00  +0.00
       183      323.268     72.72327     508.9702     15.69946      2.5733    101.4821   9.7725230e-01   1.7582058e+00  -4.2739549e-01     1.041     0.743  14.35  14.35  +0.00  +0.00  +0.00
       184     153.1051     46.20074     507.6613     15.69946    292.5057    100.5280   4.0048323e+00   4.0169187e+00  -2.6318088e-01     0.508     0.491  43.69  43.69  +0.00  +0.00  +0.00
       185     152.5948      56.0367     508.2843     15.69946    127.8174     98.8299   2.4769976e+00   2.3615186e+00  -1.4685999e+00     0.771     0.563  47.25  47.25  +0.00  +0.00  +0.00
       186     198.1868     56.36121     507.9695     15.69946    158.8186     97.8674   2.3952422e+00   2.2725101e+00  -1.3157681e+00     0.773     0.578  47.66  47.66  +0.00  +0.00  +0.00
       187      72.8504      45.5006     508.5565     15.69946     67.0203     98.4953   4.0041060e+00   8.0616741e+00   8.0652237e+00     0.811     0.308 -31.65 -31.65  +0.00  +0.00  +0.00
       188      253.827     72.34032     507.7133     15.69946    285.1514     96.1395   7.1954709e-01   1.8678786e+00  -4.8895627e-01     1.222     0.722  11.53  11.53  +0.00  +0.00  +0.00
       189     201.0007     64.69041     507.4511     15.69946    417.2554     95.1272   1.2893385e+00   1.9297957e+00   1.1804738e+00     1.032     0.662 -30.76 -30.76  +0.00  +0.00  +0.00
       190     196.9379     64.66528     507.8117     15.69946    252.1113     92.7479   1.3329163e+00   1.1484311e+00   6.1876261e-01     1.044     0.800 -53.30 -53.30  +0.00  +0.00  +0.00
       191     279.8479     79.11985     507.3504     15.69946    462.2693     91.0815   6.1577368e-01   2.4342811e+00   1.2483277e+00     1.539     0.617 -17.23 -17.23  +0.00  +0.00  +0.00
       192     137.5365     46.06575      507.472     15.69946    384.0248     89.7524   1.9586775e+00   5.3700023e+00  -1.2931484e-01     0.715     0.431   1.09   1.09  +0.00  +0.00  +0.00
       193     161.3815     51.42115     507.7944     15.69946    270.0021     89.1833   3.0508065e+00   2.1820569e+00   2.1746647e+00     0.832     0.514 -55.89 -55.89  +0.00  +0.00  +0.00
       194     107.9097     51.00351     508.7993     15.69946     20.3779     89.1783   4.8505921e+00   2.1485629e+00  -2.2647705e+00     0.759     0.436  70.02  70.02  +0.00  +0.00  +0.00
       195     286.1733     75.90787     508.5137     15.69946    100.4558     83.4994   1.2105502e+00   1.1429262e+00  -8.2764375e-01     1.146     0.793  47.34  47.34  +0.00  +0.00  +0.00
       196     247.4955     64.97726        507.8     15.69946    260.3397     82.3356   1.7909969e+00   7.0819602e+00   3.8280635e+00     0.924     0.360 -17.94 -17.94  +0.00  +0.00  +0.00
       197     94.20114     45.68791     507.7689     15.69946    277.7543     81.4977   1.5963079e+00   4.3514900e+00   1.4979397e+00     0.843     0.469 -14.27 -14.27  +0.00  +0.00  +0.00
       198     107.2045     55.71175       508.68     15.69946     32.4885     80.4690   5.5091267e+00   1.5363188e+00  -3.0431697e+00     0.990     0.407  71.27  71.27  +0.00  +0.00  +0.00
       199     292.6353     75.94192     507.7941     15.69946    249.0436     75.3512   6.1959714e-01   2.6756489e+00   4.0420398e-02     1.271     0.611  -0.56  -0.56  +0.00  +0.00  +0.00
       200     272.4999      72.4435     508.5812     15.69946     72.7418     68.3537   1.6531804e+00   1.5909649e+00  -2.5261359e+00     1.670     0.589  45.71  45.71  +0.00  +0.00  +0.00
       201     213.6124     60.76127     507.7946     15.69946    235.3336     67.6966   1.8249999e+00   3.9688487e+00   3.6299057e+00     1.126     0.447 -29.72 -29.72  +0.00  +0.00  +0.00
       202     111.4305      45.8385     507.8785     15.69946    163.9974     68.2326   1.8709030e+00   5.6019297e+00  -1.2628157e-02     0.731     0.423   0.10   0.10  +0.00  +0.00  +0.00
       203     172.3795     51.50664     508.7572     15.69946     24.8006     68.6203   2.0696931e+00   4.5996737e+00  -1.7117321e+00     0.744     0.454  17.04  17.04  +0.00  +0.00  +0.00
       204     190.5709     60.60939     507.7356     15.69946    352.4359     60.3230   4.3503985e+00   1.0146028e+00   1.0727643e+00     1.037     0.475 -81.09 -81.09  +0.00  +0.00  +0.00
       205     176.9153     51.54185      507.792     15.69946    219.5627     58.7289   4.5622458e+00   2.0996788e+00  -2.0457418e+00     0.760     0.450  70.14  70.14  +0.00  +0.00  +0.00
       206     169.5115     60.47025      508.594     15.69946     81.4103     57.1218   6.1724567e+00   9.7428656e-01  -2.8191221e+00     1.273     0.391  75.76  75.76  +0.00  +0.00  +0.00
       207     159.9662     56.08929     507.8946     15.69946    484.4990     55.9897   4.0009317e+00   1.4739189e+00   7.3494039e-02     0.824     0.500 -89.17 -89.17  +0.00  +0.00  +0.00
       208       167.76     51.47075     508.0201     15.69946    472.2079     56.5924   2.0405939e+00   4.8403678e+00   2.3883555e+00     0.790     0.435 -20.23 -20.23  +0.00  +0.00  +0.00
       209     88.47552     45.63775     507.7777     15.69946    236.5097     56.2475   1.9609145e+00   1.3059986e+01  -7.7665215e+00     1.165     0.265  17.49  17.49  +0.00  +0.00  +0.00
       210      276.548     79.10316     507.7832     15.69946    211.7735     53.8591   1.1447952e+00   2.9444294e+00  -1.3495501e+00     1.043     0.562  18.43  18.43  +0.00  +0.00  +0.00
       211       160.13     56.09047     508.5597     15.69946     83.6079     53.0253   1.1661634e+00   4.1274199e+00   2.2668049e+00     1.131     0.471 -18.72 -18.72  +0.00  +0.00  +0.00
       212     166.3794     64.47598     507.7523     15.69946    493.7562     47.2473   7.4520025e+00   2.0466194e+00   4.0741811e+00     0.856     0.351 -71.50 -71.50  +0.00  +0.00  +0.00
       213     312.9817      82.3982     508.5742     15.69946     32.2162     43.4157   1.4128891e+00   1.5271828e+00  -1.6536648e+00     1.249     0.660  43.02  43.02  +0.00  +0.00  +0.00
       214     165.1134     60.44115     507.8404     15.69946    388.5674     43.8823   1.8046174e+00   1.5170923e+00   1.7495574e+00     1.136     0.627 -49.67 -49.67  +0.00  +0.00  +0.00
       215     134.5514     55.90776     507.6717     15.69946    192.7863     43.6147   6.1361699e+00   2.3273697e+00  -6.0731387e+00     1.243     0.358  61.05  61.05  +0.00  +0.00  +0.00
       216     231.2131     68.64419     507.8447     15.69946    146.0149     40.4245   1.7265732e+00   1.8843435e+00   2.5932410e+00     1.405     0.568 -43.26 -43.26  +0.00  +0.00  +0.00
       217     142.0624     46.10503     508.4792     15.69946     67.3049     45.9581   5.1647763e+00   6.9304905e+00   1.0103184e+01     1.043     0.299 -40.04 -40.04  +0.00  +0.00  +0.00
       218      352.965     85.58304      508.635     15.69946     20.9846     38.1342   1.0889418e+00   1.9219193e+00  -9.8971975e-01     1.079     0.682  24.96  24.96  +0.00  +0.00  +0.00
       219     213.9689     68.54363     507.5772     15.69946    185.2231     37.3054   7.6385242e-01   2.8747728e+00   9.0400672e-01     1.221     0.581 -11.59 -11.59  +0.00  +0.00  +0.00
       220     141.0277     55.95407     508.2482     15.69946     38.8238     35.1782   2.3451054e+00   2.4536002e+00   1.4926194e+00     0.778     0.564 -42.92 -42.92  +0.00  +0.00  +0.00
       221     161.4549     60.41693     508.8127     15.69946      9.4351     34.1399   1.1948584e+00   4.3718443e+00   2.8761075e+00     1.249     0.451 -21.08 -21.08  +0.00  +0.00  +0.00
       222     127.3348      55.8561     507.8918     15.69946    178.6495    500.9747   1.9439245e+00   1.5633076e+00   7.7037638e-01     0.869     0.677 -58.15 -58.15  +0.00  +0.00  +0.00
       223     365.0765     79.54957     508.9312     15.69946      3.0167     26.8836   9.7064179e-01   1.2625122e+00  -3.1978008e-01     1.054     0.866  23.81  23.81  +0.00  +0.00  +0.00
       224      302.295     82.34631     507.7356     15.69946    112.9893     24.6262   7.0922768e-01   4.2779889e+00   1.2740433e-01     1.188     0.483  -1.02  -1.02  +0.00  +0.00  +0.00
       225     198.4606     51.70879      507.541     15.69946    103.0382     17.9880   2.4002404e+00   2.8255665e+00  -6.2145228e-03     0.645     0.595   0.42   0.42  +0.00  +0.00  +0.00
       226     125.8684     45.96432     507.8985     15.69946    368.2507     30.0045   5.3231888e+00   2.1367421e+00   2.5707236e-02     0.684     0.433 -89.77 -89.77  +0.00  +0.00  +0.00
       227     105.2098     45.78419     507.4561     15.69946     94.2656     16.9931   5.2138157e+00   7.2363753e+00   1.0389478e+01     1.035     0.295 -39.49 -39.49  +0.00  +0.00  +0.00
       228     174.0073     51.51928     506.4326     15.69946    358.2437    500.6346   2.0038691e+00   4.6360817e+00   1.6100168e+00     0.750     0.453 -15.73 -15.73  +0.00  +0.00  +0.00
       229     264.9296     72.40169     507.0632     15.69946    154.3533    496.2319   1.3538980e+00   2.0176864e+00   2.2736800e+00     1.412     0.590 -36.86 -36.86  +0.00  +0.00  +0.00
       230     1260.718     116.5492     506.2309     15.69946    334.0337    491.0276   4.5506313e-01   9.1276336e-01  -8.0679339e-01     2.131     0.933  30.22  30.22  +0.00  +0.00  +0.00
       231     126.8327     60.18728     506.7786     15.69946    143.6834    492.8618   1.2684033e+00   3.2172570e+00   1.9994240e+00     1.087     0.524 -22.87 -22.87  +0.00  +0.00  +0.00
       232      248.576     68.74529     506.6628     15.69946    319.3907    488.6425   8.0888212e-01   2.5950742e+00   8.1733650e-01     1.179     0.610 -12.29 -12.29  +0.00  +0.00  +0.00
