#   1 NUMBER                 Running object number                                     
#   2 FLUX_ISO               Isophotal flux                                             [count]
#   3 FLUXERR_ISO            RMS error for isophotal flux                               [count]
#   4 BACKGROUND             Background at centroid position                            [count]
#   5 THRESHOLD              Detection threshold above background                       [count]
#   6 X_IMAGE                Object position along x                                    [pixel]
#   7 Y_IMAGE                Object position along y                                    [pixel]
#   8 CXX_IMAGE              Cxx object ellipse parameter                               [pixel**(-2)]
#   9 CYY_IMAGE              Cyy object ellipse parameter                               [pixel**(-2)]
#  10 CXY_IMAGE              Cxy object ellipse parameter                               [pixel**(-2)]
#  11 A_IMAGE                Profile RMS along major axis                               [pixel]
#  12 B_IMAGE                Profile RMS along minor axis                               [pixel]
#  13 THETA_IMAGE            Position angle (CCW/x)                                     [deg]
#  14 THETA_WORLD            Position angle (CCW/world-x)                               [deg]
#  15 THETA_SKY              Position angle (east of north) (native)                    [deg]
#  16 THETA_J2000            Position angle (east of north) (J2000)                     [deg]
#  17 THETA_B1950            Position angle (east of north) (B1950)                     [deg]
         1     690.8867     95.41389     508.2256     24.67058    423.6815      7.0615   9.4206947e-01   1.7112592e+00   4.9849281e-01     1.073     0.748 -16.47 -16.47  +0.00  +0.00  +0.00
         2     1166.128     102.4208     506.2309     24.67058    334.3074    491.1174   5.7612747e-01   1.2712675e+00  -1.1728181e+00     2.033     0.789  29.67  29.67  +0.00  +0.00  +0.00
         3     510.2672      77.0797      506.871     24.67058     19.3792    484.4750   1.6545329e+00   2.1794369e+00  -3.2085602e+00     1.853     0.531  40.35  40.35  +0.00  +0.00  +0.00
         4     184.8469     46.47474     507.8986     24.67058    257.4774    467.0133   7.9700322e+00   4.0014873e+00   7.9632425e+00     0.807     0.310 -58.24 -58.24  +0.00  +0.00  +0.00
         5     690.8704      78.0113     507.9321     24.67058    250.1819    462.4388   1.0267435e+00   6.3285284e+00  -3.0516992e+00     1.271     0.385  14.96  14.96  +0.00  +0.00  +0.00
         6     2005.373     152.4256     507.9096     24.67058    236.0090    454.6576   4.3398368e-01   1.2282587e+00  -8.6901772e-01     2.031     0.839  23.79  23.79  +0.00  +0.00  +0.00
         7     1353.746     114.6959     507.8707     24.67058    220.9854    445.7541   8.8044220e-01   2.1045079e+00  -2.1805856e+00     2.032     0.604  30.35  30.35  +0.00  +0.00  +0.00
         8     634.0512     92.49506     507.0164     24.67058    340.2762    446.2590   5.0930691e-01   1.5496268e+00  -8.7070704e-01     1.688     0.765  19.96  19.96  +0.00  +0.00  +0.00
         9      328.456     69.20852     507.2612     24.67058    157.3780    443.5632   4.9048495e-01   4.7032800e+00  -1.1191546e+00     1.548     0.458   7.44   7.44  +0.00  +0.00  +0.00
        10     395.3154      61.9459     507.1724     24.67058    329.6845    440.4154   1.0114764e+00   4.3314486e+00  -9.2981285e-01     1.027     0.477   7.82   7.82  +0.00  +0.00  +0.00
        11     245.4514     46.99346     507.2591     24.67058    325.4836    437.5446   4.0059891e+00   4.0336676e+00  -1.6316636e-01     0.504     0.494  40.19  40.19  +0.00  +0.00  +0.00
        12      1771.53     145.0326      507.431     24.67058    310.9593    429.6943   4.8067212e-01   1.6561902e+00  -8.1883681e-01     1.685     0.749  17.43  17.43  +0.00  +0.00  +0.00
        13     541.0839     80.42972     507.4886     24.67058    298.9243    423.1292   7.5330013e-01   1.7511096e+00  -3.3762339e-01     1.174     0.750   9.35   9.35  +0.00  +0.00  +0.00
        14     538.1067      73.8955     507.4884     24.67058    294.1270    419.8408   1.0667105e+00   2.0601532e+00  -1.2663493e+00     1.148     0.650  25.94  25.94  +0.00  +0.00  +0.00
        15     628.0305     80.86097     507.4886     24.67058    287.6967    416.4228   1.0527232e+00   4.3764944e+00  -1.0833701e+00     1.017     0.473   9.03   9.03  +0.00  +0.00  +0.00
        16     1076.694     106.8854     507.5141     24.67058    268.5986    405.0574   1.0001814e+00   1.8550168e+00  -1.6135774e+00     1.394     0.654  31.04  31.04  +0.00  +0.00  +0.00
        17      657.734     92.59743     507.5051     24.67058    177.6653    387.8625   9.2875028e-01   3.2999830e+00  -2.8249757e+00     1.924     0.503  25.00  25.00  +0.00  +0.00  +0.00
        18     446.7082     69.88863     507.3664     24.67058    150.6590    372.1424   1.1792173e+00   2.0162740e+00  -6.4582735e-01     0.967     0.686  18.83  18.83  +0.00  +0.00  +0.00
        19      229.143     51.94559     507.3477     24.67058    140.1790    365.4080   2.0899878e+00   4.5770407e+00  -1.9110384e+00     0.753     0.452  18.77  18.77  +0.00  +0.00  +0.00
        20      198.053     46.58826     507.3488     24.67058    120.9853    354.2559   2.0262539e+00   5.2521482e+00  -7.9918988e-02     0.703     0.436   0.71   0.71  +0.00  +0.00  +0.00
        21     538.3836     83.48524     507.3208     24.67058     88.4552    335.7517   8.5300952e-01   2.4923642e+00   5.3300440e-01     1.111     0.628  -9.01  -9.01  +0.00  +0.00  +0.00
        22     606.5966     83.81142     507.3426     24.67058     59.6056    319.1364   1.2768002e+00   2.7255054e+00   5.6860858e-01     0.904     0.600 -10.71 -10.71  +0.00  +0.00  +0.00
        23     337.6699     61.57254     507.4232     24.67058     42.1131    309.8398   1.1828865e+00   2.8163948e+00  -9.9026906e-01     0.978     0.582  15.61  15.61  +0.00  +0.00  +0.00
        24     170.7861     46.35357     507.7771     24.67058     26.5355    300.0457   7.7912798e+00   4.0051551e+00  -7.7726068e+00     0.797     0.313  57.99  57.99  +0.00  +0.00  +0.00
        25      1173.32     111.8382     508.5429     24.67058     42.0081    137.5192   4.9707860e-01   9.9492425e-01  -7.6083910e-01     1.853     0.913  28.40  28.40  +0.00  +0.00  +0.00
        26     310.2598      65.3625     508.4804     24.67058    109.7384     88.5068   5.5031538e-01   4.1467500e+00   5.6693631e-01     1.376     0.490  -4.48  -4.48  +0.00  +0.00  +0.00
        27     230.2644     56.58841     508.5876     24.67058     82.0210     73.1534   2.4233747e+00   3.3589680e+00   3.3620443e+00     0.934     0.464 -37.22 -37.22  +0.00  +0.00  +0.00
        28     583.3443     80.63962     508.6771     24.67058    464.0817     29.7229   6.3819718e-01   2.0771120e+00  -2.2693750e-01     1.261     0.692   4.48   4.48  +0.00  +0.00  +0.00
