#   1 NUMBER                 Running object number                                     
#   2 FLUX_ISO               Isophotal flux                                             [count]
#   3 FLUXERR_ISO            RMS error for isophotal flux                               [count]
#   4 BACKGROUND             Background at centroid position                            [count]
#   5 THRESHOLD              Detection threshold above background                       [count]
#   6 X_IMAGE                Object position along x                                    [pixel]
#   7 Y_IMAGE                Object position along y                                    [pixel]
#   8 CXX_IMAGE              Cxx object ellipse parameter                               [pixel**(-2)]
#   9 CYY_IMAGE              Cyy object ellipse parameter                               [pixel**(-2)]
#  10 CXY_IMAGE              Cxy object ellipse parameter                               [pixel**(-2)]
#  11 A_IMAGE                Profile RMS along major axis                               [pixel]
#  12 B_IMAGE                Profile RMS along minor axis                               [pixel]
#  13 THETA_IMAGE            Position angle (CCW/x)                                     [deg]
#  14 THETA_WORLD            Position angle (CCW/world-x)                               [deg]
#  15 THETA_SKY              Position angle (east of north) (native)                    [deg]
#  16 THETA_J2000            Position angle (east of north) (J2000)                     [deg]
#  17 THETA_B1950            Position angle (east of north) (B1950)                     [deg]
         1     690.8867     95.41389     508.2256     24.67058    423.6815      7.0615   9.4206947e-01   1.7112592e+00   4.9849281e-01     1.073     0.748 -16.47 -16.47  +0.00  +0.00  +0.00
         2     510.2672      77.0797      506.871     24.67058     19.3792    484.4750   1.6545329e+00   2.1794369e+00  -3.2085602e+00     1.853     0.531  40.35  40.35  +0.00  +0.00  +0.00
         3     875.7173     90.80564     507.9321     24.67058    250.1819    462.4388   1.0267435e+00   6.3285284e+00  -3.0516992e+00     1.271     0.385  14.96  14.96  +0.00  +0.00  +0.00
         4     559.9124     74.01344     507.9296     24.67058    244.4448    459.3406   9.9433529e-01   1.7209501e+00  -1.3960733e+00     1.324     0.683  31.25  31.25  +0.00  +0.00  +0.00
         5     1353.746     114.6959     507.8707     24.67058    220.6684    445.7874   8.1863493e-01   2.3899255e+00  -2.6274579e+00     3.687     0.565  29.56  29.56  +0.00  +0.00  +0.00
         6     634.0512     92.49506     507.0164     24.67058    340.2762    446.2590   5.0930691e-01   1.5496268e+00  -8.7070704e-01     1.688     0.765  19.96  19.96  +0.00  +0.00  +0.00
         7      328.456     69.20852     507.2612     24.67058    157.3780    443.5632   4.9048495e-01   4.7032800e+00  -1.1191546e+00     1.548     0.458   7.44   7.44  +0.00  +0.00  +0.00
         8     395.3154      61.9459     507.1724     24.67058    329.6845    440.4154   1.0114764e+00   4.3314486e+00  -9.2981285e-01     1.027     0.477   7.82   7.82  +0.00  +0.00  +0.00
         9     2016.981      152.456      507.442     24.67058    309.9422    429.0662   4.5240316e-01   1.6128589e+00  -1.2966989e+00     2.480     0.725  24.09  24.09  +0.00  +0.00  +0.00
        10     1410.029     125.3603     507.4885     24.67058    296.9498    421.6766   5.7913107e-01   1.2843320e+00  -1.4587892e+00     2.868     0.758  32.10  32.10  +0.00  +0.00  +0.00
        11     1373.886     119.0683     507.5082     24.67058    270.2633    406.0555   9.0172547e-01   2.2363491e+00  -2.5948508e+00     3.014     0.575  31.39  31.39  +0.00  +0.00  +0.00
        12      657.734     92.59743     507.5051     24.67058    177.6653    387.8625   9.2875028e-01   3.2999830e+00  -2.8249757e+00     1.924     0.503  25.00  25.00  +0.00  +0.00  +0.00
        13     446.7082     69.88863     507.3664     24.67058    150.6590    372.1424   1.1792173e+00   2.0162740e+00  -6.4582735e-01     0.967     0.686  18.83  18.83  +0.00  +0.00  +0.00
        14      229.143     51.94559     507.3477     24.67058    140.1790    365.4080   2.0899878e+00   4.5770407e+00  -1.9110384e+00     0.753     0.452  18.77  18.77  +0.00  +0.00  +0.00
        15      198.053     46.58826     507.3488     24.67058    120.9853    354.2559   2.0262539e+00   5.2521482e+00  -7.9918988e-02     0.703     0.436   0.71   0.71  +0.00  +0.00  +0.00
        16     538.3836     83.48524     507.3208     24.67058     88.4552    335.7517   8.5300952e-01   2.4923642e+00   5.3300440e-01     1.111     0.628  -9.01  -9.01  +0.00  +0.00  +0.00
        17     606.5966     83.81142     507.3426     24.67058     59.6056    319.1364   1.2768002e+00   2.7255054e+00   5.6860858e-01     0.904     0.600 -10.71 -10.71  +0.00  +0.00  +0.00
        18     337.6699     61.57254     507.4232     24.67058     42.1131    309.8398   1.1828865e+00   2.8163948e+00  -9.9026906e-01     0.978     0.582  15.61  15.61  +0.00  +0.00  +0.00
        19     170.7861     46.35357     507.7771     24.67058     26.5355    300.0457   7.7912798e+00   4.0051551e+00  -7.7726068e+00     0.797     0.313  57.99  57.99  +0.00  +0.00  +0.00
        20     310.2598      65.3625     508.4804     24.67058    109.7384     88.5068   5.5031538e-01   4.1467500e+00   5.6693631e-01     1.376     0.490  -4.48  -4.48  +0.00  +0.00  +0.00
        21     230.2644     56.58841     508.5876     24.67058     82.0210     73.1534   2.4233747e+00   3.3589680e+00   3.3620443e+00     0.934     0.464 -37.22 -37.22  +0.00  +0.00  +0.00
        22     583.3443     80.63962     508.6771     24.67058    464.0817     29.7229   6.3819718e-01   2.0771120e+00  -2.2693750e-01     1.261     0.692   4.48   4.48  +0.00  +0.00  +0.00
