#   1 NUMBER                 Running object number                                     
#   2 FLUX_ISO               Isophotal flux                                             [count]
#   3 FLUXERR_ISO            RMS error for isophotal flux                               [count]
#   4 BACKGROUND             Background at centroid position                            [count]
#   5 THRESHOLD              Detection threshold above background                       [count]
#   6 X_IMAGE                Object position along x                                    [pixel]
#   7 Y_IMAGE                Object position along y                                    [pixel]
#   8 CXX_IMAGE              Cxx object ellipse parameter                               [pixel**(-2)]
#   9 CYY_IMAGE              Cyy object ellipse parameter                               [pixel**(-2)]
#  10 CXY_IMAGE              Cxy object ellipse parameter                               [pixel**(-2)]
#  11 A_IMAGE                Profile RMS along major axis                               [pixel]
#  12 B_IMAGE                Profile RMS along minor axis                               [pixel]
#  13 THETA_IMAGE            Position angle (CCW/x)                                     [deg]
#  14 THETA_WORLD            Position angle (CCW/world-x)                               [deg]
#  15 THETA_SKY              Position angle (east of north) (native)                    [deg]
#  16 THETA_J2000            Position angle (east of north) (J2000)                     [deg]
#  17 THETA_B1950            Position angle (east of north) (B1950)                     [deg]
         1     213.1006     56.46695     508.2256     29.15613    424.0078      6.8370   2.2839196e+00   3.2659578e+00   3.1601629e+00     0.945     0.475 -36.37 -36.37  +0.00  +0.00  +0.00
         2     296.7128     57.05617      506.871     29.15613     19.1793    484.3421   2.1685584e+00   4.3280082e+00  -4.7142968e+00     1.235     0.414  32.69  32.69  +0.00  +0.00  +0.00
         3     1799.227     136.1675     507.9096     29.15613    236.0090    454.6576   7.3710084e-01   1.8783555e+00  -1.6341374e+00     1.793     0.659  27.54  27.54  +0.00  +0.00  +0.00
         4     421.0029     62.11155     507.0266     29.15613    340.7340    446.4130   9.8970717e-01   4.3660965e+00  -9.7725677e-01     1.042     0.475   8.07   8.07  +0.00  +0.00  +0.00
         5     1588.396     117.6685     507.8774     29.15613    208.8343    438.8892   7.3961896e-01   1.6644849e+00  -1.7948843e+00     2.279     0.672  31.37  31.37  +0.00  +0.00  +0.00
         6     964.8322     91.19735      507.431     29.15613    310.9593    429.6943   6.5588623e-01   2.8184180e+00  -1.6716805e+00     1.643     0.568  18.85  18.85  +0.00  +0.00  +0.00
         7     2665.832     163.6458     507.5744     29.15613    186.2819    426.6382   4.8274449e-01   1.2506301e+00  -1.1452253e+00     2.375     0.802  28.08  28.08  +0.00  +0.00  +0.00
         8     1072.097     102.0529     507.4884     29.15613    294.1270    419.8408   1.7490602e+00   4.4158263e+00  -3.8735032e+00     1.170     0.429  27.73  27.73  +0.00  +0.00  +0.00
         9     375.3594     57.60489     507.5199     29.15613    267.8432    404.8288   2.2487743e+00   2.4455745e+00  -1.3006172e+00     0.769     0.577  40.70  40.70  +0.00  +0.00  +0.00
        10     351.0669     57.43596     507.3615     29.15613    150.4943    372.4905   1.5190396e+00   5.4390874e+00  -2.9555690e+00     0.988     0.411  18.51  18.51  +0.00  +0.00  +0.00
        11     188.7267     46.50812     507.3208     29.15613     88.2190    335.7599   2.0493255e+00   7.6454544e+00   4.2121859e+00     0.862     0.346 -18.48 -18.48  +0.00  +0.00  +0.00
        12     935.1464     88.26212      507.297     29.15613    314.1331    308.0919   6.3421386e-01   1.6647425e+00  -1.0300879e+00     1.541     0.730  22.49  22.49  +0.00  +0.00  +0.00
        13     1177.717     99.98141     508.5429     29.15613     42.0081    137.5192   5.8161116e-01   1.4796158e+00  -1.1438131e+00     1.815     0.754  25.93  25.93  +0.00  +0.00  +0.00
        14     7862.129     137.3494     507.8642     29.15613    205.3958    111.9945   6.9657063e-01   1.0526927e+00   3.7655064e-01     1.275     0.939 -23.30 -23.30  +0.00  +0.00  +0.00
        15     385.2918     57.67382     508.6771     29.15613    464.0127     29.5139   1.5570030e+00   4.0031133e+00  -4.8692985e-03     0.801     0.500   0.06   0.06  +0.00  +0.00  +0.00
