#   1 NUMBER                 Running object number                                     
#   2 FLUX_ISO               Isophotal flux                                             [count]
#   3 FLUXERR_ISO            RMS error for isophotal flux                               [count]
#   4 BACKGROUND             Background at centroid position                            [count]
#   5 THRESHOLD              Detection threshold above background                       [count]
#   6 X_IMAGE                Object position along x                                    [pixel]
#   7 Y_IMAGE                Object position along y                                    [pixel]
#   8 CXX_IMAGE              Cxx object ellipse parameter                               [pixel**(-2)]
#   9 CYY_IMAGE              Cyy object ellipse parameter                               [pixel**(-2)]
#  10 CXY_IMAGE              Cxy object ellipse parameter                               [pixel**(-2)]
#  11 A_IMAGE                Profile RMS along major axis                               [pixel]
#  12 B_IMAGE                Profile RMS along minor axis                               [pixel]
#  13 THETA_IMAGE            Position angle (CCW/x)                                     [deg]
#  14 THETA_WORLD            Position angle (CCW/world-x)                               [deg]
#  15 THETA_SKY              Position angle (east of north) (native)                    [deg]
#  16 THETA_J2000            Position angle (east of north) (J2000)                     [deg]
#  17 THETA_B1950            Position angle (east of north) (B1950)                     [deg]
         1     385.2918     57.67382     508.6771     33.64169    464.0127     29.5139   1.5570030e+00   4.0031133e+00  -4.8692985e-03     0.801     0.500   0.06   0.06  +0.00  +0.00  +0.00
         2      408.687     53.31022     507.9014     33.64169    234.8051    453.8135   3.1251187e+00   3.1547749e+00  -4.0983739e+00     0.958     0.439  44.79  44.79  +0.00  +0.00  +0.00
         3     389.3456     57.70193     507.0266     33.64169    340.8453    446.3241   1.0748098e+00   5.5815835e+00  -2.0903547e+00     1.088     0.415  12.44  12.44  +0.00  +0.00  +0.00
         4     742.1437     78.27376     507.8774     33.64169    208.9649    438.7557   1.9763628e+00   2.6022260e+00  -3.8981681e+00     1.781     0.484  40.44  40.44  +0.00  +0.00  +0.00
         5     248.4357     47.01886     507.7298     33.64169    198.9608    434.2307   2.0060453e+00   5.6405458e+00  -2.0462376e-01     0.707     0.421   1.61   1.61  +0.00  +0.00  +0.00
         6      815.845     84.80421      507.431     33.64169    310.6404    429.6344   6.8997914e-01   5.0374241e+00  -1.4154197e+00     1.316     0.441   9.02   9.02  +0.00  +0.00  +0.00
         7     1646.833     117.8669     507.5744     33.64169    186.2819    426.6382   5.7760698e-01   2.5242486e+00  -1.8940804e+00     2.277     0.586  22.11  22.11  +0.00  +0.00  +0.00
         8     1868.932     132.6323     507.2587     33.64169    322.6812    313.1552   5.9690970e-01   1.6264019e+00  -1.5478621e+00     2.343     0.700  28.19  28.19  +0.00  +0.00  +0.00
         9     1367.707     110.2737     507.4407     33.64169    289.2448    293.8250   5.8470470e-01   1.6177337e+00  -1.6354330e+00     2.731     0.695  28.86  28.86  +0.00  +0.00  +0.00
        10     929.4158     88.23615     507.5012     33.64169    280.0387    288.5390   5.4400551e-01   1.9978311e+00  -1.2094979e+00     1.753     0.672  19.88  19.88  +0.00  +0.00  +0.00
        11     1279.314      107.641     507.5585     33.64169    271.8914    283.7339   4.4499370e-01   1.7486131e+00  -1.4164488e+00     2.729     0.697  23.69  23.69  +0.00  +0.00  +0.00
        12     757.9626     81.50118      507.675     33.64169    196.2546    240.1278   6.9564676e-01   2.8787706e+00  -1.8457135e+00     1.672     0.558  20.11  20.11  +0.00  +0.00  +0.00
        13     2758.656     149.4228     507.7161     33.64169    182.0037    231.8110   1.3071246e+00   1.8222939e+00  -2.2593601e+00     1.569     0.606  38.58  38.58  +0.00  +0.00  +0.00
        14     1177.717     99.98141     508.5429     33.64169     42.1658    137.5445   5.9957081e-01   1.4909158e+00  -1.1726168e+00     1.800     0.749  26.38  26.38  +0.00  +0.00  +0.00
        15     7862.129     137.3494     507.8642     33.64169    205.3958    111.9945   6.9657063e-01   1.0526927e+00   3.7655064e-01     1.275     0.939 -23.30 -23.30  +0.00  +0.00  +0.00
