#   1 NUMBER                 Running object number                                     
#   2 FLUX_ISO               Isophotal flux                                             [count]
#   3 FLUXERR_ISO            RMS error for isophotal flux                               [count]
#   4 BACKGROUND             Background at centroid position                            [count]
#   5 THRESHOLD              Detection threshold above background                       [count]
#   6 X_IMAGE                Object position along x                                    [pixel]
#   7 Y_IMAGE                Object position along y                                    [pixel]
#   8 CXX_IMAGE              Cxx object ellipse parameter                               [pixel**(-2)]
#   9 CYY_IMAGE              Cyy object ellipse parameter                               [pixel**(-2)]
#  10 CXY_IMAGE              Cxy object ellipse parameter                               [pixel**(-2)]
#  11 A_IMAGE                Profile RMS along major axis                               [pixel]
#  12 B_IMAGE                Profile RMS along minor axis                               [pixel]
#  13 THETA_IMAGE            Position angle (CCW/x)                                     [deg]
#  14 THETA_WORLD            Position angle (CCW/world-x)                               [deg]
#  15 THETA_SKY              Position angle (east of north) (native)                    [deg]
#  16 THETA_J2000            Position angle (east of north) (J2000)                     [deg]
#  17 THETA_B1950            Position angle (east of north) (B1950)                     [deg]
         1     1372.431     104.3404     107.8791     7.196678    753.8633    202.0444   1.6738738e-01   5.0274068e-01  -5.1278418e-01     5.902     1.249  28.41  28.41  +0.00  +0.00  +0.00
         2     619.7911     68.96684     108.4506     7.196678    441.7151     21.6219   2.4385364e-01   6.9009644e-01  -6.7424506e-01     3.993     1.071  28.25  28.25  +0.00  +0.00  +0.00
         3     776.1241     75.54938     108.3917     7.196678    466.7473     35.9705   2.9836446e-01   4.9446416e-01  -6.6333199e-01     4.447     1.161  36.77  36.77  +0.00  +0.00  +0.00
         4     754.2952     71.96678     108.5664     7.196678    383.2201     18.4347   1.7328617e-01   4.2315125e-01  -3.3852163e-01     3.374     1.402  26.78  26.78  +0.00  +0.00  +0.00
         5     1440.128     103.3225      108.611     7.196678    369.7241     10.7803   1.8572162e-01   5.8894128e-01  -5.5246162e-01     4.696     1.171  26.94  26.94  +0.00  +0.00  +0.00
         6     255.5186     42.38952     106.2422     7.196678   1644.7157     10.8703   1.3096230e+00   1.4584063e+00  -1.2592465e+00     1.155     0.704  41.63  41.63  +0.00  +0.00  +0.00
         7     207.2772     41.12387     107.1016     7.196678   1277.7047     13.7924   6.1117446e-01   1.4210267e+00   1.0467433e+00     1.680     0.772 -26.14 -26.14  +0.00  +0.00  +0.00
         8      9643.24     93.66408     107.2594     7.196678   1449.6213      7.4023   3.6972472e-01   3.7247136e-01  -3.4053907e-02     1.681     1.605  42.69  42.69  +0.00  +0.00  +0.00
         9     221.4831     41.12387     106.3535     7.196678    933.7668      8.1400   2.7465540e-01   1.3695868e+00   6.4616449e-02     1.911     0.854  -1.69  -1.69  +0.00  +0.00  +0.00
        10       1158.4     95.34178     108.3271     7.196678    200.6885      7.1782   2.6321080e-01   1.3160366e+00  -8.1546330e-01     2.842     0.829  18.88  18.88  +0.00  +0.00  +0.00
        11     439.6791     57.24201     107.6834     7.196678    728.7267      4.4271   6.5639889e-01   5.3658903e-01  -2.4879774e-01     1.477     1.167  57.86  57.86  +0.00  +0.00  +0.00
        12     870.0153     84.15336      108.513     7.196678    410.0838      3.8455   2.1273975e-01   5.3891891e-01  -4.4719884e-01     3.177     1.238  26.95  26.95  +0.00  +0.00  +0.00
        13     552.8155     63.37615     108.3944     7.196678    454.5898     29.8124   2.0394179e-01   4.9941048e-01  -4.6591073e-01     3.632     1.262  28.81  28.81  +0.00  +0.00  +0.00
        14     481.3819     61.68581     108.0218     7.196678    248.1604     34.4777   2.3731309e-01   2.1583132e-01  -2.5861952e-01     3.214     1.675  47.37  47.37  +0.00  +0.00  +0.00
        15     1448.943     107.3365     107.9797     7.196678     89.7733    192.9961   1.4727634e-01   1.7257221e-01  -2.3128423e-01     4.790     1.903  41.88  41.88  +0.00  +0.00  +0.00
        16     442.7852     60.82303     108.1846     7.196678    226.7827     19.7500   5.6128192e-01   2.6925459e+00  -1.8372395e+00     2.132     0.574  20.38  20.38  +0.00  +0.00  +0.00
        17     1053.754     91.95578     108.4599     7.196678    511.5413     61.7004   1.2850480e-01   4.1436940e-01  -4.0557802e-01     6.546     1.387  27.41  27.41  +0.00  +0.00  +0.00
        18     984.8608     89.62741     107.9264     7.196678    271.5199     48.8839   4.9146792e-01   6.1243910e-01  -3.4656569e-01     1.648     1.166  35.38  35.38  +0.00  +0.00  +0.00
        19     381.0001     55.36471     108.4804     7.196678    478.4756     42.8655   4.9615237e-01   1.2304829e+00  -1.2798296e+00     2.822     0.790  30.08  30.08  +0.00  +0.00  +0.00
        20     514.9532     61.68581     108.5301     7.196678    495.5501     53.3923   3.3860853e-01   7.1936744e-01  -6.8362665e-01     2.695     1.042  30.44  30.44  +0.00  +0.00  +0.00
        21     190.6188     41.12387     107.4512     7.196678    805.8030     49.2675   4.4385186e-01   1.0323554e+00  -5.9186000e-01     1.766     0.930  22.58  22.58  +0.00  +0.00  +0.00
        22     279.6088     43.61846     106.9255     7.196678   1420.0614     53.5512   6.7769915e-01   1.3269700e+00   3.3121297e-01     1.252     0.855 -13.51 -13.51  +0.00  +0.00  +0.00
        23     399.8136     54.40178     108.5374     7.196678    487.2020     48.2347   1.3417614e-01   1.1923703e+00  -3.0373129e-01     2.977     0.908   8.01   8.01  +0.00  +0.00  +0.00
        24     262.5637     48.22202     107.8921     7.196678    294.2968     59.3010   3.1570667e-01   8.2559085e-01  -5.3541493e-01     2.231     1.031  23.20  23.20  +0.00  +0.00  +0.00
        25     254.6145     43.61846     106.8518     7.196678    972.7219     62.4226   9.3044579e-01   1.6784204e+00  -6.7812884e-01     1.118     0.743  21.10  21.10  +0.00  +0.00  +0.00
        26     524.9597     63.37615     108.4311     7.196678    527.6255     70.9595   3.2696709e-01   2.9473707e-01  -2.3892771e-01     2.292     1.523  48.84  48.84  +0.00  +0.00  +0.00
        27     696.1322     69.72892     108.4575     7.196678    539.0537     77.9744   4.3971181e-01   1.0073889e+00  -1.2543935e+00     5.336     0.842  32.83  32.83  +0.00  +0.00  +0.00
        28     231.9914     41.12387      107.421     7.196678    843.8158     67.4009   1.7153202e+00   1.0141882e+00  -2.0932767e+00     1.958     0.636  54.26  54.26  +0.00  +0.00  +0.00
        29     220.8375     44.81371     106.9632     7.196678   1456.7404     65.1415   6.2065029e-01   1.9096355e+00  -1.7934391e+00     2.493     0.650  27.15  27.15  +0.00  +0.00  +0.00
        30      425.028     57.24201     106.9512     7.196678    898.1802     62.7609   3.3591712e-01   9.7016311e-01  -2.8222445e-01     1.808     1.000  11.99  11.99  +0.00  +0.00  +0.00
        31     264.3284     47.11332     107.8378     7.196678    306.1774     66.6370   2.7860379e-01   1.1461166e+00  -5.4474705e-01     2.235     0.904  16.06  16.06  +0.00  +0.00  +0.00
        32     367.6094     58.15794     107.8738     7.196678    324.6153     77.4307   2.4736167e-01   4.5474213e-01  -3.5015756e-01     2.603     1.343  29.68  29.68  +0.00  +0.00  +0.00
        33     9649.013     91.37925     106.9218     7.196678   1321.2024     90.0813   3.7142959e-01   3.6813101e-01   5.9996706e-02     1.716     1.581 -46.57 -46.57  +0.00  +0.00  +0.00
        34     764.8854     79.63604     107.9046     7.196678    338.2950     86.0068   2.7902266e-01   1.4580841e+00  -8.0078447e-01     2.533     0.795  17.09  17.09  +0.00  +0.00  +0.00
        35      433.502     55.36471      108.444     7.196678    553.8544     86.8061   4.4491005e-01   6.2767678e-01  -6.0345089e-01     2.127     1.084  36.58  36.58  +0.00  +0.00  +0.00
        36     230.5859     41.12387     107.5702     7.196678    808.2635     82.0923   1.2763790e+00   8.7986302e-01  -8.7621719e-01     1.294     0.801  57.17  57.17  +0.00  +0.00  +0.00
        37     271.7972     47.11332     107.8845     7.196678    353.5179     95.5744   7.7949041e-01   5.6237501e-01   4.6912976e-02     1.336     1.131 -83.90 -83.90  +0.00  +0.00  +0.00
        38     294.7065     47.11332      107.932     7.196678    374.7703    107.6483   1.0662556e+00   2.8889284e-01  -6.5966022e-01     2.441     0.918  69.84  69.84  +0.00  +0.00  +0.00
        39     502.3588     65.02255      107.488     7.196678    854.6442    110.0394   5.5801660e-01   5.2137309e-01  -4.9783140e-01     1.857     1.126  47.10  47.10  +0.00  +0.00  +0.00
        40     163.0792     37.06856     107.1788     7.196678    896.9130     97.5626   7.4805295e-01   9.5169598e-01   1.2522039e-01     1.170     1.016 -15.79 -15.79  +0.00  +0.00  +0.00
        41     217.7594     42.38952     106.7393     7.196678   1629.9871     99.1714   6.2497914e-01   9.2007637e-01   2.9283518e-01     1.331     1.010 -22.39 -22.39  +0.00  +0.00  +0.00
        42       9669.7     88.44024     106.8688     7.196678   1498.5741    112.5931   3.8379136e-01   3.9747202e-01  -2.1908766e-02     1.627     1.574  29.01  29.01  +0.00  +0.00  +0.00
        43     1267.204     97.53384     108.0788     7.196678    648.0065    141.4537   2.0450667e-01   5.3023362e-01  -4.6758854e-01     3.483     1.238  27.57  27.57  +0.00  +0.00  +0.00
        44     785.7091     77.61961     108.2617     7.196678    601.0016    114.5262   4.3282729e-01   8.5687482e-01  -9.0192932e-01     2.612     0.935  32.41  32.41  +0.00  +0.00  +0.00
        45     203.8383     39.81802     107.8884     7.196678    360.0869    100.0894   5.7609844e-01   1.3998853e+00  -3.0690065e-01     1.350     0.837  10.22  10.22  +0.00  +0.00  +0.00
        46     219.4003     39.81802     107.9508     7.196678    380.2507    110.4402   1.1621009e+00   7.9009348e-01  -2.2111550e-01     1.147     0.916  74.64  74.64  +0.00  +0.00  +0.00
        47     173.2214     41.12387      106.804     7.196678   1720.0828    113.5815   5.0925779e-01   1.2182876e+00  -5.8778677e-02     1.403     0.906   2.37   2.37  +0.00  +0.00  +0.00
        48     437.5535     56.31118     108.1948     7.196678    611.7999    119.2926   2.7346182e-01   5.7923192e-01  -3.8030735e-01     2.342     1.221  25.60  25.60  +0.00  +0.00  +0.00
        49      183.201     39.81802     108.2352     7.196678    504.6837    119.3419   1.0229684e+00   9.8529178e-01  -1.5312139e+00     2.049     0.752  45.70  45.70  +0.00  +0.00  +0.00
        50      9981.27     98.61159     106.8515     7.196678   1836.9720    146.7740   3.4523425e-01   3.3364967e-01   7.8578107e-03     1.734     1.699 -72.93 -72.93  +0.00  +0.00  +0.00
        51      432.243     59.94783     108.1277     7.196678    623.0662    127.1044   3.0429810e-01   5.4993856e-01  -4.7681293e-01     2.508     1.199  31.37  31.37  +0.00  +0.00  +0.00
        52     434.4864     57.24201     108.0004     7.196678    414.6479    129.8715   1.2286096e+00   4.5113045e-01   1.2973788e-01     1.498     0.900 -85.26 -85.26  +0.00  +0.00  +0.00
        53     272.9391     47.11332      107.578     7.196678    169.3353    132.1264   1.0145702e+00   6.6286248e-01  -4.5220149e-01     1.346     0.943  63.94  63.94  +0.00  +0.00  +0.00
        54     183.6518     39.81802     106.9153     7.196678   1377.5651    129.9091   3.6848408e-01   1.1001471e+00  -5.6618243e-01     1.918     0.914  18.87  18.87  +0.00  +0.00  +0.00
        55     238.8545     43.61846     107.3842     7.196678    906.8560    140.1973   8.8087797e-01   9.0838200e-01   1.1330865e-01     1.093     1.024 -38.18 -38.18  +0.00  +0.00  +0.00
        56     557.6049     65.02255     108.0255     7.196678    439.8587    144.6918   7.1517718e-01   5.4949141e-01  -6.4931422e-01     1.834     1.017  52.16  52.16  +0.00  +0.00  +0.00
        57     637.1138     70.48277     108.0699     7.196678    661.3381    148.8762   2.8237122e-01   7.9897815e-01  -7.9362684e-01     3.858     0.993  28.47  28.47  +0.00  +0.00  +0.00
        58     170.7151     41.12387     106.9053     7.196678   1180.7499    145.3872   2.0088415e+00   5.1374036e-01   3.7170697e-02     1.395     0.706 -89.29 -89.29  +0.00  +0.00  +0.00
        59     204.3533     39.81802     106.9965     7.196678    980.4922    145.5891   5.8493453e-01   1.1048191e+00  -1.1077824e+00     2.072     0.829  32.43  32.43  +0.00  +0.00  +0.00
        60     745.8786     75.54939     107.9745     7.196678    461.5278    159.0369   1.6744445e-01   3.3664286e-01  -1.4688760e-01     2.672     1.657  20.48  20.48  +0.00  +0.00  +0.00
        61     819.7047     81.60265     107.7414     7.196678    832.4426    164.9620   2.4897046e-01   9.2708325e-01  -6.8453395e-01     3.068     0.967  22.63  22.63  +0.00  +0.00  +0.00
        62     302.1861     44.81371     107.2184     7.196678    945.0152    161.7401   4.4395450e-01   1.3077112e+00   5.0852150e-01     1.634     0.852 -15.24 -15.24  +0.00  +0.00  +0.00
        63     557.1368     65.02255     107.9926     7.196678    711.2053    177.7409   4.6363312e-01   8.2811719e-01  -1.1288193e+00     4.353     0.898  36.05  36.05  +0.00  +0.00  +0.00
        64     385.8557     52.42286      108.031     7.196678    700.2910    170.9939   3.3787781e-01   1.0784825e+00  -8.7110287e-01     2.707     0.884  24.81  24.81  +0.00  +0.00  +0.00
        65     637.5695     70.48277     107.9414     7.196678    513.4357    187.5714   5.5187804e-01   3.4958762e-01  -6.7277253e-01     3.171     1.117  53.37  53.37  +0.00  +0.00  +0.00
        66     201.1989     43.61846     107.3745     7.196678    979.9494    180.5824   5.8138198e-01   1.2861779e+00  -1.2054046e+00     2.060     0.783  29.84  29.84  +0.00  +0.00  +0.00
        67     202.4649     41.12387     108.0169     7.196678    615.0076    181.6649   7.7505118e-01   1.0010970e+00  -3.0558786e-01     1.197     0.963  26.75  26.75  +0.00  +0.00  +0.00
        68     604.1888     68.19624     108.0082     7.196678    691.9014    197.2962   2.6044777e-01   6.2522405e-01  -6.2073308e-01     3.474     1.116  29.78  29.78  +0.00  +0.00  +0.00
        69     9742.428     88.44024     106.8676     7.196678   1564.0839    200.4353   3.8391584e-01   3.8674611e-01  -1.8325442e-02     1.631     1.592  40.61  40.61  +0.00  +0.00  +0.00
        70     501.3803     66.62829      107.722     7.196678    876.8423    190.8242   3.5155320e-01   5.8044600e-01  -4.9966046e-01     2.287     1.162  32.69  32.69  +0.00  +0.00  +0.00
        71     752.3545     76.93572      107.882     7.196678    769.7691    210.8088   2.5258756e-01   5.1752782e-01  -5.9605628e-01     4.120     1.186  33.02  33.02  +0.00  +0.00  +0.00
        72      566.296     65.83032     107.5503     7.196678    964.0240    241.1066   4.7731405e-01   2.4133727e-01  -9.9286169e-02     2.079     1.432  78.59  78.59  +0.00  +0.00  +0.00
        73      1122.03     95.34178     107.8864     7.196678    786.9805    220.7919   1.7814277e-01   5.4162824e-01  -5.7033086e-01     6.784     1.197  28.74  28.74  +0.00  +0.00  +0.00
        74     441.4188     58.15794     107.9794     7.196678    700.8045    201.9797   3.7469098e-01   4.3498760e-01  -2.9378748e-01     1.981     1.343  39.20  39.20  +0.00  +0.00  +0.00
        75     9883.886     94.22664     106.8163     7.196678   1526.4171    214.1609   3.5662338e-01   3.7460813e-01   4.8174422e-02     1.715     1.599 -34.76 -34.76  +0.00  +0.00  +0.00
        76     599.7288     68.19624     107.9624     7.196678    708.3806    206.7442   2.7392626e-01   7.8758562e-01  -7.5853086e-01     3.708     1.006  27.95  27.95  +0.00  +0.00  +0.00
        77     1526.648     110.2511     108.6965     7.196678     24.9513    238.0724   2.7451932e-01   6.4953923e-01  -7.8948504e-01     6.323     1.055  32.30  32.30  +0.00  +0.00  +0.00
        78     9800.593     94.78585     106.8743     7.196678   1462.2877    220.9079   3.6140564e-01   3.5549569e-01   1.0826465e-02     1.685     1.656 -59.31 -59.31  +0.00  +0.00  +0.00
        79     367.6155     53.42148     107.3277     7.196678   1024.2949    208.2372   1.1680751e+00   1.2223463e+00  -1.9171870e+00     2.057     0.681  44.19  44.19  +0.00  +0.00  +0.00
        80     1152.638     93.66408     107.8833     7.196678    762.4542    237.5252   1.5479949e-01   4.5596361e-01  -4.6500134e-01     5.936     1.310  28.54  28.54  +0.00  +0.00  +0.00
        81     1157.041     96.44404     107.2966     7.196678   1128.9714    267.1361   5.5657339e-01   6.6781718e-01  -8.9504355e-01     2.490     0.970  41.46  41.46  +0.00  +0.00  +0.00
        82     9675.945     89.62741     106.8312     7.196678   1553.6846    230.9052   3.7068492e-01   3.9554310e-01  -8.4455516e-03     1.644     1.589   9.38   9.38  +0.00  +0.00  +0.00
        83     691.6384     74.84658      107.971     7.196678    568.1168    219.1763   2.0396402e-01   1.2770030e+00  -2.7484003e-01     2.315     0.879   7.18   7.18  +0.00  +0.00  +0.00
        84     380.3366     56.31118     107.9129     7.196678    591.1170    231.7012   2.3754424e-01   5.8652884e-01  -1.0390848e-01     2.085     1.297   8.29   8.29  +0.00  +0.00  +0.00
        85     247.4932     41.12387      107.619     7.196678    344.3288    228.8030   4.5371497e-01   1.8233925e+00   1.1771650e+00     2.060     0.700 -20.34 -20.34  +0.00  +0.00  +0.00
        86     371.3832     54.40178      107.911     7.196678    599.9561    237.8330   2.4858333e-01   5.1577479e-01  -3.4870765e-01     2.480     1.289  26.27  26.27  +0.00  +0.00  +0.00
        87     859.7548     82.24775     108.9699     7.196678      6.2949    248.6808   1.5032735e-01   3.4662694e-01  -3.5234246e-01     4.622     1.490  30.44  30.44  +0.00  +0.00  +0.00
        88     193.9079     39.81802     107.1858     7.196678   1127.7390    232.4199   3.7300658e-01   6.6356885e-01   1.4534691e-01     1.676     1.212 -13.29 -13.29  +0.00  +0.00  +0.00
        89     790.8099     78.29752     108.2775     7.196678     55.2647    255.9145   2.9737884e-01   8.4210122e-01  -8.6937881e-01     4.197     0.961  28.97  28.97  +0.00  +0.00  +0.00
        90     193.8742     42.38952     107.8871     7.196678    572.4061    256.5153   4.6548432e-01   9.4756281e-01  -1.7773379e-01     1.491     1.019  10.12  10.12  +0.00  +0.00  +0.00
        91     412.1138     57.24201     107.9322     7.196678    644.3872    261.7651   4.3090060e-01   1.2544525e+00   7.1382123e-01     1.833     0.849 -20.46 -20.46  +0.00  +0.00  +0.00
        92     1038.086     87.23692     107.8651     7.196678    844.8132    285.0567   2.1299933e-01   5.1560283e-01  -5.8811116e-01     5.455     1.200  31.39  31.39  +0.00  +0.00  +0.00
        93     1035.287     90.21513     108.1524     7.196678     88.0627    274.8083   3.8699147e-01   7.7655351e-01  -9.1733879e-01     3.462     0.962  33.50  33.50  +0.00  +0.00  +0.00
        94     190.4565     39.81802     107.6636     7.196678    406.6383    266.2930   1.1315280e+00   1.4287193e+00   8.1970048e-01     1.088     0.763 -35.04 -35.04  +0.00  +0.00  +0.00
        95     266.8706     44.81371      107.957     7.196678    657.0652    271.0256   2.6147082e-01   1.1210893e+00  -2.4833454e-01     2.025     0.937   8.06   8.06  +0.00  +0.00  +0.00
        96     470.5782     60.82303     107.0396     7.196678   1207.7253    277.3420   1.1148634e+00   8.7155455e-01   1.5385281e+00     2.160     0.751 -49.49 -49.49  +0.00  +0.00  +0.00
        97     395.5871     51.40484      107.946     7.196678    665.7333    275.5287   1.9981493e-01   7.3684400e-01   1.4965494e-01     2.297     1.157  -7.79  -7.79  +0.00  +0.00  +0.00
        98      862.412     81.60266     107.8327     7.196678    862.4092    294.6096   2.3229797e-01   6.3957983e-01  -6.8676418e-01     5.219     1.094  29.67  29.67  +0.00  +0.00  +0.00
        99     371.4104     52.42286      107.878     7.196678    832.0817    277.3251   2.3462366e-01   9.0163833e-01  -4.5725811e-02     2.068     1.053   1.96   1.96  +0.00  +0.00  +0.00
       100     406.2743     55.36471     107.2709     7.196678   1168.0642    292.0931   1.5582013e-01   1.9395612e-01   1.4668736e-02     2.544     2.263 -10.52 -10.52  +0.00  +0.00  +0.00
       101     303.8553     52.42286     108.1414     7.196678    108.1228    287.1397   4.9965575e-01   6.9681299e-01  -6.8578500e-01     2.035     1.023  36.98  36.98  +0.00  +0.00  +0.00
       102     421.5734     57.24201     106.6543     7.196678   1958.6847    302.1055   5.6448078e-01   1.3048083e-01  -2.8486735e-01     3.373     1.283  73.36  73.36  +0.00  +0.00  +0.00
       103     369.2968     55.36471     107.4872     7.196678   1039.8407    284.7882   4.6934640e-01   1.4679558e+00   2.3461249e-02     1.460     0.825  -0.67  -0.67  +0.00  +0.00  +0.00
       104     503.0787     65.83032     107.8799     7.196678    696.5579    292.6716   1.6137095e-01   4.6039531e-01  -2.3073049e-01     2.863     1.415  18.83  18.83  +0.00  +0.00  +0.00
       105     1239.993     94.22664     107.8409     7.196678    900.4921    317.4940   1.4641108e-01   3.9265525e-01  -4.1557679e-01     5.975     1.399  29.68  29.68  +0.00  +0.00  +0.00
       106     294.6703     49.30579     107.5031     7.196678   1053.1779    293.0105   1.0283626e+00   8.2714188e-01  -1.2693077e+00     1.873     0.798  49.50  49.50  +0.00  +0.00  +0.00
       107     662.2096      73.4208     107.5888     7.196678   1095.0592    317.8142   3.1609464e-01   4.8713630e-01  -4.7070059e-01     2.572     1.238  35.02  35.02  +0.00  +0.00  +0.00
       108     300.2164     49.30579     107.8593     7.196678    705.5959    298.8874   5.9538603e-01   1.3023924e+00  -1.5214665e+00     3.015     0.748  32.54  32.54  +0.00  +0.00  +0.00
       109      9648.63     87.84064     107.8311     7.196678    855.3411    310.2931   4.0714031e-01   3.7036273e-01   5.9902858e-02     1.682     1.536 -60.77 -60.77  +0.00  +0.00  +0.00
       110     699.7632     74.13712     108.0456     7.196678    131.5321    299.8941   3.1733507e-01   6.3424617e-01  -3.3163407e-01     2.014     1.191  23.15  23.15  +0.00  +0.00  +0.00
       111     322.6068     49.30579     106.8838     7.196678   1387.8496    303.1647   1.0225876e-01   4.0004697e-01   2.2169327e-02     3.133     1.580  -2.13  -2.13  +0.00  +0.00  +0.00
       112     310.3665     47.11332     107.8405     7.196678    718.9122    305.6666   5.6133687e-01   6.1618865e-01  -7.2169560e-01     2.099     1.026  42.83  42.83  +0.00  +0.00  +0.00
       113     1222.142     98.07419     108.0507     7.196678    170.3415    321.3499   3.6568040e-01   3.5220578e-01  -5.2988523e-01     3.263     1.266  45.73  45.73  +0.00  +0.00  +0.00
       114     348.4132     49.30579      107.848     7.196678    772.6277    304.6112   7.7864820e-01   5.3023911e-01  -4.1507298e-01     1.557     1.056  60.45  60.45  +0.00  +0.00  +0.00
       115     1060.832     95.34178     107.0937     7.196678   1203.8187    311.8751   2.4167691e-01   5.1656324e-01  -3.9046472e-01     2.669     1.272  27.43  27.43  +0.00  +0.00  +0.00
       116     253.8029     45.97789     108.0061     7.196678    151.7607    310.3359   7.2140336e-01   8.6658365e-01  -9.2696607e-01     1.754     0.890  40.55  40.55  +0.00  +0.00  +0.00
       117     570.2226     66.62829     107.7782     7.196678    738.0979    317.0938   3.0459031e-01   9.3788218e-01  -9.2378920e-01     4.041     0.920  27.78  27.78  +0.00  +0.00  +0.00
       118     9488.584     90.79906     107.7295     7.196678    624.3648    325.3208   3.7065157e-01   3.9079481e-01  -2.0872965e-02     1.652     1.591  23.01  23.01  +0.00  +0.00  +0.00
       119     9758.611     93.09813     106.6552     7.196678   1955.1125    334.7035   3.7490463e-01   3.5913035e-01  -1.4479083e-02     1.675     1.627  68.73  68.73  +0.00  +0.00  +0.00
       120     183.4624     39.81802     106.8763     7.196678   1698.0052    320.2919   1.4265661e+00   6.0894817e-01  -5.4165965e-01     1.377     0.814  73.24  73.24  +0.00  +0.00  +0.00
       121     9712.479     93.09813      106.877     7.196678   1720.0603    345.8757   3.7733176e-01   3.5724020e-01   1.9372400e-02     1.682     1.620 -68.02 -68.02  +0.00  +0.00  +0.00
       122     183.0927     39.81802     107.7418     7.196678    753.6612    325.2812   5.9534955e-01   1.2036964e+00   2.2685106e-01     1.319     0.904 -10.23 -10.23  +0.00  +0.00  +0.00
       123     250.8267     41.12387      106.702     7.196678   1865.9020    331.1653   6.2361449e-01   7.5583452e-01  -5.3814369e-01     1.557     1.017  38.10  38.10  +0.00  +0.00  +0.00
       124     9753.807     93.09813     106.5088     7.196678   2032.6001    344.9374   3.7137827e-01   3.6658603e-01  -1.6867297e-02     1.666     1.627  52.93  52.93  +0.00  +0.00  +0.00
       125     176.8148     39.81802     106.9443     7.196678   1392.2709    331.3554   6.6039479e-01   8.2102823e-01  -8.1724286e-01     1.756     0.930  39.44  39.44  +0.00  +0.00  +0.00
       126     333.6555     49.30579     107.8191     7.196678    934.1460    337.3364   4.5845810e-01   6.4364016e-01   4.2155915e-01     1.765     1.131 -33.14 -33.14  +0.00  +0.00  +0.00
       127     250.7034     41.12387     108.3011     7.196678     37.7629    340.7765   1.5046118e+00   4.5040560e-01   2.5320053e-02     1.490     0.815 -89.31 -89.31  +0.00  +0.00  +0.00
       128     217.2018     39.81802     106.9036     7.196678   1646.6182    338.9959   6.1974210e-01   9.9626189e-01   9.0802836e-01     1.778     0.877 -33.74 -33.74  +0.00  +0.00  +0.00
       129     249.7862     45.97789     107.8032     7.196678    791.0228    346.7525   5.6743705e-01   9.0464497e-01  -7.3607618e-01     1.738     0.936  32.69  32.69  +0.00  +0.00  +0.00
       130     562.7386      66.6283      108.053     7.196678    222.8831    352.6754   8.8209885e-01   1.2994282e+00  -1.6563380e+00     2.055     0.717  37.93  37.93  +0.00  +0.00  +0.00
       131     208.1649     41.12387     106.8402     7.196678   1460.9263    346.5823   2.2093527e+00   1.6989628e+00   3.0969536e+00     1.612     0.533 -49.68 -49.68  +0.00  +0.00  +0.00
       132     233.4415     41.12387     107.7948     7.196678    840.0323    344.4154   7.1657968e-01   1.1813501e+00   9.7161502e-02     1.185     0.918  -5.90  -5.90  +0.00  +0.00  +0.00
       133     701.1311     75.54938     107.9733     7.196678    266.9761    378.7226   3.5129768e-01   4.4880149e-01  -5.7191873e-01     3.016     1.204  40.16  40.16  +0.00  +0.00  +0.00
       134     9768.052     91.95578     108.0035     7.196678    340.9096    371.0799   3.6683992e-01   3.7435424e-01  -1.5733739e-02     1.662     1.624  32.24  32.24  +0.00  +0.00  +0.00
       135     372.6075     53.42148     107.2432     7.196678   1289.5276    362.4052   2.6642799e-01   6.0644841e-01  -3.3634338e-01     2.251     1.217  22.34  22.34  +0.00  +0.00  +0.00
       136     422.8675     56.31118     108.0504     7.196678    236.6283    360.8661   1.5727694e-01   7.3416293e-01  -7.5828508e-02     2.542     1.165   3.74   3.74  +0.00  +0.00  +0.00
       137     268.0868     45.97789     108.0392     7.196678    249.0285    368.8696   1.4544170e+00   5.2150339e-01   1.3437423e+00     2.425     0.744 -62.39 -62.39  +0.00  +0.00  +0.00
       138      179.745     39.81802     107.7418     7.196678    811.0878    358.6004   8.4698242e-01   9.6850115e-01  -2.4279563e-01     1.138     0.979  31.71  31.71  +0.00  +0.00  +0.00
       139     280.9104     45.97789     107.2197     7.196678   1310.5715    373.3228   3.6441681e-01   1.4392993e+00  -9.8306561e-01     2.400     0.783  21.22  21.22  +0.00  +0.00  +0.00
       140      265.418     47.11332     107.1254     7.196678   1327.9857    380.4634   9.7688937e-01   4.1048017e-01  -4.3144909e-01     1.721     0.976  71.35  71.35  +0.00  +0.00  +0.00
       141     214.9568     43.61846     106.8164     7.196678   1745.9736    379.3647   5.7481211e-01   6.5422916e-01   7.3813504e-01     2.027     1.007 -41.93 -41.93  +0.00  +0.00  +0.00
       142     500.2542     63.37615     107.9504     7.196678    277.4721    384.4778   3.0531555e-01   7.0963526e-01  -6.5463448e-01     2.854     1.059  29.15  29.15  +0.00  +0.00  +0.00
       143     210.2178     41.12387      106.914     7.196678   1501.9883    385.4736   7.2292441e-01   2.3928860e-01   2.7005536e-02     2.046     1.176 -88.40 -88.40  +0.00  +0.00  +0.00
       144     10187.42     99.67769     107.0717     7.196678   1348.5057    398.1474   3.4050620e-01   3.2804555e-01  -2.2659199e-02     1.764     1.697  59.40  59.40  +0.00  +0.00  +0.00
       145     174.5732     39.81802     107.6072     7.196678    721.2405    385.4389   1.0500932e+00   6.8650609e-01  -2.6102597e-01     1.246     0.957  72.16  72.16  +0.00  +0.00  +0.00
       146     327.1011     48.22202      107.835     7.196678    421.2735    389.0660   3.9858547e-01   6.0748404e-01  -1.1083329e-01     1.612     1.269  13.97  13.97  +0.00  +0.00  +0.00
       147     1363.451     102.2943     107.9986     7.196678    293.2292    414.8128   8.2565695e-02   2.1270438e-01  -1.4904368e-01     4.531     2.014  24.44  24.44  +0.00  +0.00  +0.00
       148     990.9834     84.15336     108.0858     7.196678    342.4928    422.0114   2.7611884e-01   5.9406376e-01  -5.9731585e-01     3.215     1.137  30.99  30.99  +0.00  +0.00  +0.00
       149     452.0671     64.20463     107.9912     7.196678    306.1723    401.5402   5.6716865e-01   7.2333252e-01  -8.8978672e-01     2.273     0.955  40.02  40.02  +0.00  +0.00  +0.00
       150     771.3639     78.96962     108.4493     7.196678     18.2823    400.8301   1.8289049e-01   8.8514912e-01  -5.0103009e-01     3.121     1.018  17.75  17.75  +0.00  +0.00  +0.00
       151     756.8148     72.69743     108.0347     7.196678    306.0278    421.5435   1.5469112e-01   4.8710269e-01  -2.9371712e-01     3.177     1.357  20.73  20.73  +0.00  +0.00  +0.00
       152     237.1374     39.81802     106.7227     7.196678   1909.4862    421.2561   7.2239965e-01   4.5161068e-01  -6.2244374e-01     2.010     1.039  56.76  56.76  +0.00  +0.00  +0.00
       153     577.9406     60.82303     108.0667     7.196678    316.1186    426.9232   3.1431276e-01   6.5365690e-01  -4.1942617e-01     2.161     1.152  25.51  25.51  +0.00  +0.00  +0.00
       154     240.9904     42.38952     107.8886     7.196678    477.3109    422.5796   3.2319343e-01   4.2243271e+00  -5.7108116e-01     1.818     0.485   4.16   4.16  +0.00  +0.00  +0.00
       155     485.1895     61.68581     108.0667     7.196678    367.2744    436.2226   5.5720526e-01   7.1578252e-01  -1.0506890e+00     3.083     0.925  40.71  40.71  +0.00  +0.00  +0.00
       156     307.5724     53.42148     107.0022     7.196678   1402.4263    427.1730   1.7243405e-01   6.6108406e-01   2.3498740e-02     2.410     1.230  -1.38  -1.38  +0.00  +0.00  +0.00
       157     208.7573     41.12387     107.8503     7.196678    491.2377    428.2319   7.7144712e-01   1.1547287e+00  -9.1167402e-01     1.461     0.828  33.60  33.60  +0.00  +0.00  +0.00
       158     482.3971     62.53669     107.8101     7.196678     65.4108    427.5831   5.3038609e-01   1.3264863e+00   1.2451309e-01     1.379     0.867  -4.44  -4.44  +0.00  +0.00  +0.00
       159     222.9595     44.81371     107.5191     7.196678    906.1564    433.3376   7.1596271e-01   8.7284559e-01   7.3865634e-01     1.549     0.924 -39.00 -39.00  +0.00  +0.00  +0.00
       160     184.7093     41.12387     107.5603     7.196678     97.1518    446.3625   1.2080339e+00   4.4341934e-01  -5.2513397e-01     1.662     0.881  72.76  72.76  +0.00  +0.00  +0.00
       161     368.8323     54.40177     107.5531     7.196678     85.8891    441.7168   1.1422455e+00   6.1738294e-01  -3.0518377e-01     1.317     0.919  74.91  74.91  +0.00  +0.00  +0.00
       162     699.9368     78.29752     107.6373     7.196678    541.4044    457.2950   2.8454477e-01   9.9022496e-01  -9.5134228e-01     4.707     0.902  26.72  26.72  +0.00  +0.00  +0.00
       163     504.6103     64.20463      108.038     7.196678    399.2568    454.4961   2.2713116e-01   3.3406362e-01  -1.2479566e-01     2.245     1.660  24.70  24.70  +0.00  +0.00  +0.00
       164     219.5518     39.81802     108.0622     7.196678    382.0792    445.4534   6.7989999e-01   1.9005215e+00  -1.6692301e+00     1.975     0.656  26.91  26.91  +0.00  +0.00  +0.00
       165      161.592     39.81802     107.4775     7.196678    616.1887    448.2159   3.8718289e-01   1.6584573e+00  -8.9838827e-01     2.022     0.745  17.62  17.62  +0.00  +0.00  +0.00
       166     213.1349     39.81802     106.7446     7.196678   1842.8132    448.7159   6.2227273e-01   1.0637019e+00  -3.3743376e-01     1.330     0.945  18.70  18.70  +0.00  +0.00  +0.00
       167     330.3522     55.36471     106.9011     7.196678   1450.8721    453.6479   6.8540692e-01   6.9350731e-01  -2.7722129e-01     1.347     1.099  44.16  44.16  +0.00  +0.00  +0.00
       168     379.3567     54.40178     107.2811     7.196678    737.5747    464.4973   2.4249813e-01   2.0768772e-01   5.9680253e-02     2.291     1.963 -60.13 -60.13  +0.00  +0.00  +0.00
       169      240.381     44.81371     107.2566     7.196678   1108.4672    470.4708   2.5762022e+00   4.2879182e-01  -6.1226201e-01     1.610     0.618  82.04  82.04  +0.00  +0.00  +0.00
       170     382.4126     55.36471     108.0147     7.196678    405.8181    459.5877   4.2652628e-01   5.3717309e-01  -3.0152583e-01     1.764     1.248  34.92  34.92  +0.00  +0.00  +0.00
       171     201.6148     39.81802     108.0209     7.196678    267.6223    473.5133   2.0235057e+00   3.2362914e-01  -1.2510583e+00     2.908     0.670  71.82  71.82  +0.00  +0.00  +0.00
       172     393.8328     57.24201     106.9333     7.196678   1479.5935    468.2778   1.1783957e+00   1.3089966e+00   4.3784744e-01     0.992     0.824 -36.70 -36.70  +0.00  +0.00  +0.00
       173     214.8608     43.61846     107.6043     7.196678    125.5023    462.5844   6.2408662e-01   1.1148835e+00  -4.6520784e-01     1.372     0.910  21.73  21.73  +0.00  +0.00  +0.00
       174     325.5806     55.36471     107.5602     7.196678    140.0911    471.0539   1.8621844e-01   6.6848129e-01  -2.4836138e-01     2.531     1.196  13.62  13.62  +0.00  +0.00  +0.00
       175     353.6698     51.40484     107.4811     7.196678   1302.4347    473.6460   6.0087806e-01   4.3653405e-01   3.0052654e-02     1.516     1.289 -84.82 -84.82  +0.00  +0.00  +0.00
       176     202.1695     39.81802     106.9448     7.196678   1485.2590    472.8360   3.2684875e-01   1.7419833e+00  -8.3144754e-01     2.163     0.734  15.22  15.22  +0.00  +0.00  +0.00
       177     1011.733     84.77904     107.0772     7.196678   1359.7207    581.8610   3.0007780e-01   3.7384000e-01  -4.6581829e-01     3.144     1.321  40.50  40.50  +0.00  +0.00  +0.00
       178     1002.382     90.21513     106.9554     7.196678   1492.6029    478.4688   1.9736898e-01   1.1329348e+00  -5.7242624e-02     2.256     0.939   1.75   1.75  +0.00  +0.00  +0.00
       179     466.1968     61.68581     107.9161     7.196678    456.2552    487.6157   3.1636775e-01   7.9491359e-01  -5.5673724e-01     2.303     1.041  24.66  24.66  +0.00  +0.00  +0.00
       180     411.3494     55.36471     107.8837     7.196678    477.3715    500.4347   4.9335122e-01   2.4331048e-01  -8.4776208e-02     2.057     1.414  80.64  80.64  +0.00  +0.00  +0.00
       181     394.9095     56.31119     107.8998     7.196678    470.5157    496.1645   5.6784558e-01   1.1858082e+00  -9.3049973e-01     1.772     0.835  28.21  28.21  +0.00  +0.00  +0.00
       182     1395.743     107.3365     107.8144     7.196678    501.4583    512.6203   1.0684589e-01   4.4491148e-01  -1.7056645e-01     3.399     1.466  13.39  13.39  +0.00  +0.00  +0.00
       183     75.02417     25.18313     107.0002     7.196678   1525.2219    495.3895   1.8997028e+00   2.2583308e+00   3.0966702e-01     0.737     0.657 -20.40 -20.40  +0.00  +0.00  +0.00
       184     468.1055     59.05967     107.5914     7.196678    620.5855    503.2780   2.6108482e-01   1.0872356e+00  -5.0646979e-01     2.296     0.929  15.76  15.76  +0.00  +0.00  +0.00
       185     296.8809     45.97789     106.7168     7.196678   1764.5084    520.0533   2.0958352e+00   4.6031678e-01   1.2538356e+00     2.009     0.658 -71.26 -71.26  +0.00  +0.00  +0.00
       186     902.1869     87.84064     106.9732     7.196678   1424.2736    507.1133   6.4250761e-01   6.7687237e-01  -8.2677519e-01     2.016     0.965  43.81  43.81  +0.00  +0.00  +0.00
       187     404.0827     56.31119     107.5506     7.196678    636.9072    511.8221   8.1845027e-01   1.5563905e+00  -1.7610443e+00     2.073     0.683  33.63  33.63  +0.00  +0.00  +0.00
       188     243.9891     45.97789     107.5107     7.196678    656.3928    524.9451   3.4157002e-01   4.6100038e-01   1.3181487e-01     1.789     1.428 -23.91 -23.91  +0.00  +0.00  +0.00
       189     9748.643     96.99046     106.9852     7.196678   1437.3385    537.6256   3.9260349e-01   3.9863339e-01   1.9865731e-02     1.611     1.569 -36.56 -36.56  +0.00  +0.00  +0.00
       190     198.5883     41.12387     107.7698     7.196678    522.3228    524.4402   5.7130647e-01   1.0506200e+00  -3.2915264e-01     1.386     0.953  17.24  17.24  +0.00  +0.00  +0.00
       191     476.7734     61.68581     107.6965     7.196678    554.7300    544.5922   5.3632301e-01   4.1825214e-01   3.8275152e-02     1.552     1.362 -81.02 -81.02  +0.00  +0.00  +0.00
       192     112.9347     29.07897     107.0669     7.196678   1388.0302    526.2690   1.8960662e+00   1.8997378e+00   9.0444112e-01     0.832     0.652 -44.88 -44.88  +0.00  +0.00  +0.00
       193     487.0195     63.37615     107.3536     7.196678    690.5272    545.3000   5.2432144e-01   5.5384105e-01  -6.3343310e-01     2.122     1.081  43.67  43.67  +0.00  +0.00  +0.00
       194     424.7627     58.15794     106.8942     7.196678   1618.7854    550.6560   3.2211483e-01   5.3160369e-01  -4.6480864e-01     2.412     1.211  32.87  32.87  +0.00  +0.00  +0.00
       195     316.9805     49.30579     107.6792     7.196678    561.6382    548.2410   4.8697272e-01   8.2011473e-01  -3.9791989e-01     1.593     1.047  25.03  25.03  +0.00  +0.00  +0.00
       196     992.6423     90.21513     106.9645     7.196678   1447.7499    632.9027   1.1708825e-01   5.4520267e-01  -4.1162482e-01     5.408     1.262  21.94  21.94  +0.00  +0.00  +0.00
       197     772.5816     75.54938     107.5923     7.196678    596.7576    568.6334   1.6160959e-01   3.8917691e-01  -3.6030248e-01     4.006     1.431  28.86  28.86  +0.00  +0.00  +0.00
       198     180.5163     39.81802     107.6554     7.196678    578.8427    557.1958   6.2462664e-01   1.4120243e+00  -1.2437665e-01     1.270     0.840   4.49   4.49  +0.00  +0.00  +0.00
       199     457.3633     60.82303     107.6461     7.196678    586.5545    562.3675   1.6183393e-01   1.9600488e+00  -5.2394396e-01     2.835     0.708   8.12   8.12  +0.00  +0.00  +0.00
       200     1463.443     110.7294     107.3597     7.196678    675.9902    614.0654   8.6837612e-02   2.7833697e-01  -2.6971802e-01     7.626     1.695  27.31  27.31  +0.00  +0.00  +0.00
       201     219.2607     39.81802     106.8707     7.196678   1661.3102    575.6717   9.2411679e-01   3.3483726e-01   1.7633912e-01     1.762     1.033 -81.67 -81.67  +0.00  +0.00  +0.00
       202       640.54     74.13712     107.4582     7.196678    619.9326    581.2160   2.9547942e-01   8.0857688e-01  -7.4876052e-01     3.191     0.997  27.79  27.79  +0.00  +0.00  +0.00
       203     626.2174     70.48277     107.1215     7.196678    771.3100    590.3408   3.8832030e-01   5.7148999e-01  -7.2566128e-01     3.076     1.082  37.92  37.92  +0.00  +0.00  +0.00
       204     268.3974     43.61846     106.8573     7.196678   1668.3241    579.3723   6.1189014e-01   1.1290745e+00  -1.0447474e+00     1.865     0.829  31.83  31.83  +0.00  +0.00  +0.00
       205     611.5554     62.53669      107.063     7.196678   1369.8557    588.1045   3.2732624e-01   7.2112304e-01  -5.9892380e-01     2.456     1.064  28.34  28.34  +0.00  +0.00  +0.00
       206     340.3477     53.42148     107.0821     7.196678   1493.8325    583.4440   1.9726835e-01   1.4167029e+00  -2.4776298e-01     2.326     0.836   5.74   5.74  +0.00  +0.00  +0.00
       207     345.8776     53.42148     107.3653     7.196678    637.4489    591.6812   2.6557466e-01   9.4906890e-01  -6.2626249e-01     2.637     0.966  21.25  21.25  +0.00  +0.00  +0.00
       208     435.3179     57.24201     107.3598     7.196678    646.7330    597.0441   2.3687509e-01   4.8570436e-01  -2.2496775e-01     2.273     1.375  21.06  21.06  +0.00  +0.00  +0.00
       209     1298.893     100.7325     107.3472     7.196678    693.0154    623.0997   2.0054719e-01   3.9923984e-01  -4.8767939e-01     5.228     1.333  33.92  33.92  +0.00  +0.00  +0.00
       210     639.1271     69.72892     107.0365     7.196678   1401.6974    606.2484   1.5185441e-01   5.5866671e-01  -4.6220252e-01     4.593     1.228  24.32  24.32  +0.00  +0.00  +0.00
       211     190.7081     39.81802     107.1102     7.196678     96.2239    605.6228   4.8360193e-01   7.9802758e-01  -3.2692704e-01     1.554     1.074  23.06  23.06  +0.00  +0.00  +0.00
       212     498.3848     64.20463     106.9545     7.196678   1594.2821    606.3572   7.0364136e-01   1.1731848e+00  -4.1876772e-01     1.266     0.893  20.86  20.86  +0.00  +0.00  +0.00
       213     237.8112     41.12387     107.0687     7.196678   2010.7853    620.5891   4.0486896e-01   2.4122851e+00  -1.7144483e+00     3.359     0.605  20.25  20.25  +0.00  +0.00  +0.00
       214     485.4342     63.37615     107.0175     7.196678    960.4504    623.7690   3.2331532e-01   6.4000404e-01   4.5683235e-01     2.216     1.147 -27.63 -27.63  +0.00  +0.00  +0.00
       215     1004.794     86.62898     106.9622     7.196678   1462.0432    641.0141   1.4129506e-01   4.3246543e-01  -3.8838038e-01     4.758     1.374  26.57  26.57  +0.00  +0.00  +0.00
       216     9657.924     87.84064     106.7461     7.196678   1864.8136    638.1531   3.8427520e-01   3.8072422e-01  -1.6349852e-02     1.635     1.600  51.13  51.13  +0.00  +0.00  +0.00
       217     699.3156     75.54938       107.38     7.196678    721.5251    640.0095   2.8462163e-01   7.6277524e-01  -7.8901500e-01     4.003     1.008  29.39  29.39  +0.00  +0.00  +0.00
       218     832.9816      76.2457     106.9536     7.196678   1475.7866    648.8936   2.7636755e-01   5.1174730e-01  -5.9317583e-01     3.652     1.184  34.18  34.18  +0.00  +0.00  +0.00
       219     530.6151     65.02255      107.424     7.196678    744.2148    653.2513   2.8848094e-01   4.4920519e-01  -5.4604781e-01     3.445     1.237  36.80  36.80  +0.00  +0.00  +0.00
       220     1173.467     91.37925     106.9887     7.196678   1521.5675    675.4019   1.8589114e-01   4.7160423e-01  -5.1389414e-01     5.364     1.267  30.46  30.46  +0.00  +0.00  +0.00
       221     350.7411     56.31118     106.8314     7.196678   1632.2474    663.5794   3.6129740e-01   3.3737046e-01  -4.4313225e-01     2.801     1.323  46.55  46.55  +0.00  +0.00  +0.00
       222       337.43     51.40484     106.8031     7.196678   1655.5769    664.9404   3.1165186e-01   5.2536142e-01  -4.5778203e-01     2.455     1.221  32.49  32.49  +0.00  +0.00  +0.00
       223     277.9992     49.30579     107.7694     7.196678    374.3994    663.9878   4.2332008e-01   5.6837159e-01  -3.1055459e-01     1.756     1.224  32.48  32.48  +0.00  +0.00  +0.00
       224     840.3834     81.60266     106.9631     7.196678   1535.8792    683.7802   1.9194646e-01   3.8573578e-01  -4.1424939e-01     4.077     1.390  32.46  32.46  +0.00  +0.00  +0.00
       225     1075.272     90.21513     107.6038     7.196678    803.6946    686.7393   2.0781894e-01   3.7851423e-01  -4.7281688e-01     4.890     1.355  35.07  35.07  +0.00  +0.00  +0.00
       226     404.1644     54.40178     107.5104     7.196678    776.5149    671.4433   3.5854369e-01   6.0077947e-01  -6.5051389e-01     2.746     1.100  34.79  34.79  +0.00  +0.00  +0.00
       227     228.0768     41.12387     106.9169     7.196678   1342.5065    669.0205   2.2657557e+00   1.1152474e+00  -1.7342213e+00     1.240     0.605  61.78  61.78  +0.00  +0.00  +0.00
       228     278.1447     49.30579     107.5239     7.196678    785.1172    677.1431   3.1020552e-01   4.5123371e-01  -2.2227187e-02     1.798     1.487   4.48   4.48  +0.00  +0.00  +0.00
       229     1565.159     115.4036     107.5678     7.196678    876.8404    729.8937   2.3329821e-01   4.2857239e-01  -5.7557720e-01     6.082     1.255  35.63  35.63  +0.00  +0.00  +0.00
       230     493.5395     62.53669     107.6124     7.196678    833.5544    704.7563   3.9241183e-01   3.5242876e-01  -4.9338058e-01     2.829     1.270  47.32  47.32  +0.00  +0.00  +0.00
       231     252.0923     45.97789     107.4431     7.196678    948.8655    691.7939   5.6718761e-01   7.8819746e-01  -3.3090106e-01     1.445     1.068  28.13  28.13  +0.00  +0.00  +0.00
       232      389.001     57.24201     107.5894     7.196678    978.9558    710.2354   5.0071317e-01   8.3969182e-01  -1.1254607e+00     3.482     0.892  36.62  36.62  +0.00  +0.00  +0.00
       233     389.6916     55.36471     107.0016     7.196678   1573.0464    704.9156   2.3956263e-01   9.5992643e-01  -3.0548161e-01     2.190     1.005  11.49  11.49  +0.00  +0.00  +0.00
       234     576.7972     65.02255      107.017     7.196678   1578.8368    709.4528   1.9343930e-01   6.5032828e-01  -1.5195049e-01     2.350     1.228   9.20   9.20  +0.00  +0.00  +0.00
       235      175.535     39.81802     106.7684     7.196678   1683.1511    714.2144   1.2338358e+00   3.9827421e-01  -3.5634071e-01     1.662     0.887  78.45  78.45  +0.00  +0.00  +0.00
       236     9892.901     94.22664     107.0345     7.196678   1585.0991    727.1584   3.6427772e-01   3.5355306e-01  -1.0255315e-02     1.687     1.652  68.14  68.14  +0.00  +0.00  +0.00
       237      521.249     60.82303     107.0343     7.196678     21.2076    727.0023   6.4809614e-01   5.9002119e-01   9.2709869e-01     2.543     0.961 -46.79 -46.79  +0.00  +0.00  +0.00
       238     278.4958     45.97789        107.6     7.196678   1007.1423    724.3124   1.3722911e+00   2.6271930e-01   5.0552040e-01     2.193     0.837 -77.75 -77.75  +0.00  +0.00  +0.00
       239     199.6239     39.81802     106.7571     7.196678   1814.9651    722.4152   1.2473512e+00   7.7436966e-01  -1.4703693e+00     2.047     0.749  53.92  53.92  +0.00  +0.00  +0.00
       240     1822.183     122.0797     107.6229     7.196678    906.9460    747.2444   2.2377020e-01   5.4664356e-01  -6.5726572e-01     7.243     1.154  31.92  31.92  +0.00  +0.00  +0.00
       241     1289.968     99.67769     107.5748     7.196678    886.9178    757.2089   1.1865027e-01   3.4903610e-01  -3.4861279e-01     6.336     1.503  28.27  28.27  +0.00  +0.00  +0.00
       242     679.7737     74.13712     106.9963     7.196678     50.5731    743.7202   2.2682093e-01   5.6324655e-01  -5.1616722e-01     3.391     1.193  28.45  28.45  +0.00  +0.00  +0.00
       243      286.426     44.81371     106.7777     7.196678   1312.6709    747.4497   2.1047123e-01   8.6455715e-01   3.2527536e-01     2.409     1.052 -13.22 -13.22  +0.00  +0.00  +0.00
       244     201.1998     39.81802     107.5361     7.196678   1043.1553    745.1451   1.0530330e+00   5.5723208e-01   9.2298347e-01     1.886     0.867 -59.12 -59.12  +0.00  +0.00  +0.00
       245     226.5012     43.61846     107.7481     7.196678    442.3691    737.5118   1.5723042e-01   1.7068688e+00  -1.1800007e-01     2.540     0.765   2.18   2.18  +0.00  +0.00  +0.00
       246     824.3458      73.4208     107.6281     7.196678    623.4639    757.6875   3.5586765e-01   6.4154613e-01  -8.2838875e-01     4.063     1.033  35.49  35.49  +0.00  +0.00  +0.00
       247     199.9841     39.81802     106.9794     7.196678     58.9534    748.9664   7.7168328e-01   8.0663401e-01  -1.8878873e-03     1.138     1.113   1.55   1.55  +0.00  +0.00  +0.00
       248     289.3081     45.97789     106.9659     7.196678     70.8252    755.1875   1.1540068e+00   4.5800012e-01  -4.1017628e-01     1.577     0.909  74.74  74.74  +0.00  +0.00  +0.00
       249     1110.776     90.79906     107.6581     7.196678    905.5578    767.4073   1.3619319e-01   5.8353525e-01  -4.8776692e-01     5.878     1.203  23.74  23.74  +0.00  +0.00  +0.00
       250     219.0659     43.61846      106.903     7.196678   1487.5723    755.7952   1.3689692e+00   4.0113184e-01   7.0193362e-01     1.866     0.821 -72.02 -72.02  +0.00  +0.00  +0.00
       251     329.2413     48.22202     106.9783     7.196678     83.9234    762.8545   8.0756235e-01   5.9903544e-01  -8.7515312e-01     1.986     0.931  51.70  51.70  +0.00  +0.00  +0.00
       252     9522.762     86.01675     107.6227     7.196678    890.8863    776.7216   3.9124760e-01   3.9842522e-01  -2.6321705e-04     1.599     1.584   1.05   1.05  +0.00  +0.00  +0.00
       253     133.7723     39.81802      106.768     7.196678   1824.0652    770.1688   1.3763072e+00   5.8468014e-01   9.0683299e-01     1.625     0.795 -65.56 -65.56  +0.00  +0.00  +0.00
       254     649.5591     71.22864     107.0321     7.196678     97.1456    771.2964   3.6765912e-01   9.5755744e-01  -6.1785531e-01     2.061     0.958  23.16  23.16  +0.00  +0.00  +0.00
       255     765.4474     78.29753     107.7242     7.196678    962.5012    779.8462   3.2930335e-01   8.1547743e-01  -8.4602106e-01     3.440     0.971  30.06  30.06  +0.00  +0.00  +0.00
       256     224.0533     42.38952     106.7751     7.196678   1283.7777    775.8377   1.0667970e+00   5.1835495e-01  -3.4972695e-01     1.463     0.946  73.74  73.74  +0.00  +0.00  +0.00
       257      266.052     47.11332     107.0818     7.196678    108.9903    775.8505   5.0062120e-01   8.8806802e-01   4.0338868e-01     1.553     1.013 -23.08 -23.08  +0.00  +0.00  +0.00
       258     311.1279     47.11332     106.7713     7.196678   1658.4714    783.8750   4.2860425e-01   2.8688264e+00  -1.6228495e+00     2.335     0.567  16.81  16.81  +0.00  +0.00  +0.00
       259     762.4966      73.4208     107.3181     7.196678    687.6017    795.0394   2.6677471e-01   2.7991810e-01  -3.2314008e-01     2.993     1.516  43.84  43.84  +0.00  +0.00  +0.00
       260     1143.497     89.62741     107.3585     7.196678    699.9703    801.9036   1.6871925e-01   5.3727102e-01  -5.1010787e-01     5.107     1.224  27.08  27.08  +0.00  +0.00  +0.00
       261     401.3312     56.31119     107.2235     7.196678    136.8757    792.3770   6.5090549e-01   5.3337204e-01  -7.8377539e-01     2.260     1.006  49.26  49.26  +0.00  +0.00  +0.00
       262     501.9754     59.94783     107.3572     7.196678    676.3069    788.9155   9.8529130e-01   6.8375194e-01  -5.9998889e-02     1.212     1.006  84.37  84.37  +0.00  +0.00  +0.00
       263      353.505     49.30579     107.8001     7.196678    981.0665    791.5615   1.4612497e-01   1.1099753e+00  -2.3773064e-01     2.756     0.943   6.93   6.93  +0.00  +0.00  +0.00
       264     772.4288     76.93572     107.7327     7.196678   1008.7610    805.8227   6.4206958e-01   1.0929004e+00  -9.5777076e-01     1.720     0.846  32.40  32.40  +0.00  +0.00  +0.00
       265     994.4689      89.0358     107.4279     7.196678    715.2625    810.8995   1.2836237e-01   5.4003114e-01  -4.2681319e-01     5.150     1.259  23.02  23.02  +0.00  +0.00  +0.00
       266     240.8952     41.12387     106.9669     7.196678     87.5252    798.7308   7.5813574e-01   5.2353954e-01   2.2925204e-01     1.448     1.115 -67.83 -67.83  +0.00  +0.00  +0.00
       267     523.8412     62.53669     107.2676     7.196678    146.4369    799.1896   6.0038865e-01   6.8582219e-01   7.4238524e-02     1.306     1.195 -20.49 -20.49  +0.00  +0.00  +0.00
       268     2102.844     131.6606     107.2674     7.196678    686.6392   1109.8290   1.8842776e-01   4.1888678e-01  -5.4572165e-01    11.575     1.291  33.55  33.55  +0.00  +0.00  +0.00
       269     261.1555     44.81371     107.3669     7.196678    641.0099    816.6808   9.0834248e-01   4.2091808e-01  -8.0028653e-01     2.258     0.939  60.67  60.67  +0.00  +0.00  +0.00
       270     539.1344     65.83032     107.7285     7.196678   1020.7064    812.7604   4.8843575e-01   3.4166059e-01   1.2733038e-01     1.774     1.397 -69.53 -69.53  +0.00  +0.00  +0.00
       271     633.0784     68.19624     107.2768     7.196678    175.2480    814.6436   4.1456610e-01   6.5336901e-01  -6.9929790e-01     2.466     1.052  35.57  35.57  +0.00  +0.00  +0.00
       272     1412.693     100.7325     107.7445     7.196678   1013.4659    829.2393   1.4763734e-01   3.7560195e-01  -4.0397048e-01     5.803     1.423  30.28  30.28  +0.00  +0.00  +0.00
       273     188.4368     39.81802     106.9058     7.196678   1284.8738    822.7197   1.3703154e+00   4.5084462e-01  -9.8535168e-01     2.055     0.794  66.51  66.51  +0.00  +0.00  +0.00
       274     489.9024     65.83032     107.2883     7.196678    188.1502    822.9791   2.4085672e-01   7.6649189e-01   3.9461339e-01     2.390     1.096 -18.45 -18.45  +0.00  +0.00  +0.00
       275     195.9147     39.81802     107.7605     7.196678   1033.5247    821.0906   7.1810430e-01   6.0583317e-01  -3.5172144e-01     1.447     1.087  53.85  53.85  +0.00  +0.00  +0.00
       276     251.2742     44.81371      107.334     7.196678    659.9097    827.6027   3.7170053e-01   1.0205538e+00  -1.0096834e+00     3.227     0.878  28.64  28.64  +0.00  +0.00  +0.00
       277     9866.554     95.89449     107.1132     7.196678   2005.6732    840.1142   3.5245088e-01   3.5567316e-01  -2.4035215e-02     1.710     1.653  41.18  41.18  +0.00  +0.00  +0.00
       278     421.8564     57.24201     107.7702     7.196678   1044.1021    826.0039   4.0122998e-01   7.4938661e-01   1.6219842e-01     1.615     1.142 -12.49 -12.49  +0.00  +0.00  +0.00
       279     727.5853     72.69743     107.7992     7.196678   1028.0206    838.2615   1.7001989e-01   4.3451583e-01  -2.1318933e-01     2.748     1.455  19.43  19.43  +0.00  +0.00  +0.00
       280     487.4398     64.20463     107.6744     7.196678   1069.7091    842.9069   7.3202920e-01   5.3140008e-01  -9.8078305e-01     2.761     0.940  50.78  50.78  +0.00  +0.00  +0.00
       281      1050.37     91.95578     107.3437     7.196678    223.9863    843.5962   3.1850922e-01   8.1086951e-01  -6.7873675e-01     2.622     1.008  27.02  27.02  +0.00  +0.00  +0.00
       282     365.7953     50.36626     107.8154     7.196678   1034.2753    841.6927   7.3617995e-01   5.2259487e-01   1.0624766e-01     1.400     1.156 -76.78 -76.78  +0.00  +0.00  +0.00
       283      238.313     41.12387     106.7934     7.196678   1709.3296    836.3817   5.9788829e-01   1.1788621e+00  -6.4524841e-01     1.484     0.870  24.00  24.00  +0.00  +0.00  +0.00
       284     9654.695     90.79906     107.9218     7.196678    961.8219    856.7753   3.7184754e-01   3.8697571e-01   4.8358901e-04     1.640     1.608  -0.92  -0.92  +0.00  +0.00  +0.00
       285     586.5411     70.48277     107.6367     7.196678   1097.6288    857.3798   2.7373919e-01   6.4516544e-01  -6.1932093e-01     3.188     1.104  29.52  29.52  +0.00  +0.00  +0.00
       286     9750.756     89.62741     107.5629     7.196678    407.4893    862.8526   3.8318649e-01   3.7687048e-01  -6.7979279e-03     1.632     1.612  66.45  66.45  +0.00  +0.00  +0.00
       287     499.4025     64.20463     107.6571     7.196678   1115.4934    868.3647   1.2115482e+00   7.7748054e-01  -1.5434111e+00     2.277     0.746  52.85  52.85  +0.00  +0.00  +0.00
       288      307.004     45.97789     106.7999     7.196678   1691.0143    863.0024   1.4935725e+00   5.3490704e-01   6.9455940e-01     1.539     0.789 -72.04 -72.04  +0.00  +0.00  +0.00
       289     356.2664     52.42286     107.3439     7.196678    275.0710    873.9201   2.9074749e-01   4.7043374e-01  -1.2659371e-01     1.922     1.428  17.58  17.58  +0.00  +0.00  +0.00
       290     506.8468     63.37615     107.3519     7.196678    287.0077    879.5477   2.3773828e-01   5.0814521e-01  -2.7481738e-01     2.356     1.330  22.73  22.73  +0.00  +0.00  +0.00
       291     479.2596     57.24201     107.6681     7.196678   1137.7189    879.9630   4.0357208e-01   7.5794154e-01  -8.0754691e-01     2.674     0.989  33.15  33.15  +0.00  +0.00  +0.00
       292     722.5461      76.2457     107.6984     7.196678   1149.1747    886.5889   2.3934960e-01   6.1891919e-01  -6.0036516e-01     3.676     1.129  28.85  28.85  +0.00  +0.00  +0.00
       293      184.268     42.38952     106.7118     7.196678   2000.9672    885.7746   7.2161996e-01   1.1421796e+00   1.2215426e+00     1.870     0.796 -35.50 -35.50  +0.00  +0.00  +0.00
       294      9832.36     93.09813     107.0302     7.196678   1286.0448    898.8644   3.7085590e-01   3.6565834e-01   7.8954604e-03     1.659     1.637 -61.68 -61.68  +0.00  +0.00  +0.00
       295     288.3059     48.22202     106.7859     7.196678   1719.3297    890.4538   5.8662099e-01   2.7259845e-01  -4.1226938e-01     2.422     1.205  63.65  63.65  +0.00  +0.00  +0.00
       296     173.7326     39.81802     107.5206     7.196678    807.3274    882.6210   5.1311541e-01   1.4403150e+00  -7.5052094e-01     1.622     0.797  19.49  19.49  +0.00  +0.00  +0.00
       297     250.3197     47.11332     106.7051     7.196678   1831.6494    906.5768   8.9454579e-01   7.0473820e-01   8.8205469e-01     1.694     0.894 -51.07 -51.07  +0.00  +0.00  +0.00
       298     677.9645     74.13712     107.3334     7.196678    324.4459    901.8575   7.0123559e-01   1.1033583e+00  -1.0041075e+00     1.663     0.832  34.09  34.09  +0.00  +0.00  +0.00
       299     385.1135     61.68581     107.4847     7.196678   1188.5682    909.8095   2.7577826e-01   7.7377135e-01  -6.8681383e-01     3.153     1.027  27.03  27.03  +0.00  +0.00  +0.00
       300     234.2213     42.38952     107.2261     7.196678   2041.2402    904.2653   3.8034579e-01   1.5457282e+00  -1.2279689e-02     1.622     0.804   0.30   0.30  +0.00  +0.00  +0.00
       301     754.9278     74.13712     107.3635     7.196678   1205.7572    919.2765   2.2149591e-01   5.8548462e-01  -4.9262223e-01     3.207     1.187  26.77  26.77  +0.00  +0.00  +0.00
       302     194.0118     39.81802     106.8064     7.196678   1436.7659    911.4365   7.8794503e-01   8.8315451e-01   1.0753146e+00     1.839     0.853 -42.47 -42.47  +0.00  +0.00  +0.00
       303     282.3593     47.11332     107.2251     7.196678    423.5335    916.4875   1.0418437e+00   3.3455068e-01  -4.9971291e-01     1.980     0.944  72.38  72.38  +0.00  +0.00  +0.00
       304     1552.495     110.7294     107.7384     7.196678    265.6483   1135.1689   1.0953380e-01   3.3643067e-01  -3.4920925e-01     8.232     1.523  28.49  28.49  +0.00  +0.00  +0.00
       305     356.0871     58.15794     107.3347     7.196678    354.1537    920.7709   3.0078721e-01   1.7395244e+00  -7.1164256e-01     2.144     0.741  13.16  13.16  +0.00  +0.00  +0.00
       306     278.2332     47.11332     107.3468     7.196678   1221.6675    928.4294   5.0549030e-01   9.0282589e-01  -4.0295941e-01     1.541     1.007  22.70  22.70  +0.00  +0.00  +0.00
       307     645.6236     71.22865     107.3267     7.196678   1234.3152    935.5312   2.8181833e-01   5.4281956e-01  -4.6457079e-01     2.618     1.214  30.34  30.34  +0.00  +0.00  +0.00
       308     475.9911     59.94783     107.2618     7.196678   1244.7911    942.6003   4.8125708e-01   6.3000244e-01  -7.5705469e-01     2.426     1.031  39.44  39.44  +0.00  +0.00  +0.00
       309     542.9971     62.53669     107.1663     7.196678    414.9077    954.0169   6.7833853e-01   5.3816915e-01  -7.1380520e-01     2.022     1.014  50.55  50.55  +0.00  +0.00  +0.00
       310     255.9974     42.38952     107.3188     7.196678   1203.9082    942.7137   8.9389050e-01   1.2306207e+00   1.6219579e+00     2.067     0.727 -39.14 -39.14  +0.00  +0.00  +0.00
       311     234.1703     43.61846     107.2732     7.196678    389.5378    940.0839   1.2792598e-01   7.5401461e-01   2.1012814e-01     3.005     1.139  -9.28  -9.28  +0.00  +0.00  +0.00
       312     324.7065     50.36626     107.2145     7.196678   1254.8273    947.7162   5.6000215e-01   4.3755302e-01  -3.1701812e-01     1.744     1.223  55.56  55.56  +0.00  +0.00  +0.00
       313      387.418     53.42148     107.1926     7.196678   1260.3917    950.4371   2.5519317e-01   7.8014171e-01  -2.1853916e-01     2.070     1.117  11.30  11.30  +0.00  +0.00  +0.00
       314     9416.187     88.44024     107.4169     7.196678    256.7578    963.3522   3.9334196e-01   3.8781771e-01   8.6278748e-04     1.606     1.594 -85.56 -85.56  +0.00  +0.00  +0.00
       315     419.8918     59.05967     107.1337     7.196678    427.9030    960.4692   2.9917547e-01   3.4697497e-01  -3.4546268e-01     2.593     1.418  41.06  41.06  +0.00  +0.00  +0.00
       316     617.8758     70.48277     106.9069     7.196678   1310.5298    979.9574   1.6203293e-01   2.5866038e-01  -1.9879687e-01     3.165     1.765  32.04  32.04  +0.00  +0.00  +0.00
       317     1239.523     97.53384     107.4534     7.196678    220.2142    990.3326   1.0499656e-01   2.8016207e-01  -2.7520221e-01     5.825     1.677  28.76  28.76  +0.00  +0.00  +0.00
       318     1192.202     92.52872      108.582     7.196678     10.5994    989.1666   1.6897376e-01   4.6556759e-01  -4.9608588e-01     5.947     1.284  29.56  29.56  +0.00  +0.00  +0.00
       319     792.4309     77.61961     107.1721     7.196678    484.1996    993.5130   1.0867690e+00   9.5573169e-01  -1.4753081e+00     1.887     0.753  47.54  47.54  +0.00  +0.00  +0.00
       320     1026.101     91.37925     107.9952     7.196678     35.1197   1002.7696   1.4253055e-01   4.4480672e-01  -4.4555575e-01     6.394     1.333  27.92  27.92  +0.00  +0.00  +0.00
       321     1112.623     94.78584     106.8837     7.196678   1330.0232    991.1458   4.7558203e-01   1.0606196e+00  -1.2352790e+00     3.436     0.830  32.33  32.33  +0.00  +0.00  +0.00
       322     262.4774     45.97789      107.453     7.196678     73.4806    984.4091   3.2911867e-01   1.4081793e+00  -4.3852636e-01     1.869     0.830  11.06  11.06  +0.00  +0.00  +0.00
       323     9754.305     95.34178     106.6513     7.196678   1858.2332    999.3528   3.6540541e-01   3.5480839e-01  -1.8340455e-02     1.691     1.642  60.01  60.01  +0.00  +0.00  +0.00
       324     266.9524     45.97789     106.7546     7.196678   1475.8976    989.4013   9.8089629e-01   4.7246492e-01   8.2212669e-01     2.027     0.909 -60.87 -60.87  +0.00  +0.00  +0.00
       325     1099.329     93.09813     108.6097     7.196678      6.7296   1007.1018   1.6111450e-01   4.6476072e-01  -4.2371368e-01     4.373     1.320  27.19  27.19  +0.00  +0.00  +0.00
       326     728.6686     78.96962     106.8105     7.196678   1358.0240   1008.1221   2.2670427e-01   5.3152156e-01  -5.7421416e-01     4.301     1.192  31.02  31.02  +0.00  +0.00  +0.00
       327     879.8482     83.52299     108.2916     7.196678     23.0915   1016.6959   1.4509852e-01   3.3679259e-01  -3.3889282e-01     4.649     1.515  30.25  30.25  +0.00  +0.00  +0.00
       328     1116.958     93.09813     107.1459     7.196678    507.2606   1006.9316   1.1103687e-01   2.3790655e-01   2.0627568e-02     3.012     2.047  -4.62  -4.62  +0.00  +0.00  +0.00
       329     713.1999     75.54938     107.7915     7.196678     50.2263   1013.3215   1.3845502e-01   1.6132815e-01  -8.9146331e-02     3.103     2.259  37.80  37.80  +0.00  +0.00  +0.00
       330     786.2546     80.29694     107.8199     7.196678     65.7262   1020.4832   1.8897635e-01   5.4321623e-01  -5.1530951e-01     4.326     1.214  27.75  27.75  +0.00  +0.00  +0.00
       331     1070.521      89.0358     106.8597     7.196678   1394.1699   1028.5109   3.6489201e-01   5.1131558e-01  -7.5684500e-01     4.358     1.102  39.53  39.53  +0.00  +0.00  +0.00
       332     801.7498     82.24775     106.8402     7.196678   1381.0370   1021.3110   2.3741849e-01   5.5712706e-01  -5.7482868e-01     3.824     1.174  30.46  30.46  +0.00  +0.00  +0.00
       333     428.4791     57.24201     106.8216     7.196678   1370.4819   1014.6786   2.8633407e-01   5.7590395e-01  -1.6173466e-01     1.942     1.294  14.59  14.59  +0.00  +0.00  +0.00
       334     630.5765     71.22865     107.1197     7.196678    536.4529   1023.2111   3.7651539e-01   3.1588387e-01  -3.5580400e-01     2.456     1.378  49.84  49.84  +0.00  +0.00  +0.00
       335     849.3173     88.44024     107.8782     7.196678     95.2614   1036.6821   1.0269772e-01   1.7199555e-01  -1.9365774e-01     5.383     2.040  35.16  35.16  +0.00  +0.00  +0.00
       336     857.0879      76.2457     107.8564     7.196678     79.9707   1028.5568   1.1293494e-01   3.4543225e-01  -1.8471494e-01     3.520     1.627  19.23  19.23  +0.00  +0.00  +0.00
       337     226.9105     42.38952     106.7683     7.196678   1521.0454   1023.1374   1.2574470e+00   1.4591346e+00  -1.9192373e+00     1.594     0.656  42.00  42.00  +0.00  +0.00  +0.00
       338     849.0739     78.96962     107.8742     7.196678    112.8028   1048.0823   1.9899836e-01   3.1895125e-01  -3.8797998e-01     4.229     1.471  36.41  36.41  +0.00  +0.00  +0.00
       339     835.1857      76.2457     107.1135     7.196678    558.5653   1036.4192   2.6491383e-01   3.8788706e-01  -3.7026697e-01     2.759     1.385  35.81  35.81  +0.00  +0.00  +0.00
       340     226.4044     39.81802      106.771     7.196678   1716.6538   1034.8132   6.1875916e-01   1.1496904e+00   3.1699397e-02     1.272     0.932  -1.71  -1.71  +0.00  +0.00  +0.00
       341      841.984     85.40014     107.0928     7.196678    578.7081   1048.8832   1.9757929e-01   2.9966068e-01  -2.5734669e-01     3.012     1.607  34.18  34.18  +0.00  +0.00  +0.00
       342       272.48     44.81371     106.7739     7.196678     92.2091   1644.7769   1.2320548e+00   8.1030124e-01   5.5199623e-01     1.218     0.855 -63.69 -63.69  +0.00  +0.00  +0.00
       343     238.6385     45.97789      106.383     7.196678     66.2221   2039.2848   4.1890249e-01   3.1935555e-01  -1.9772395e-01     1.967     1.444  58.36  58.36  +0.00  +0.00  +0.00
       344     263.5437     49.30579      106.888     7.196678    885.5798   1587.4967   7.2184193e-01   2.9904461e-01  -1.4690836e-01     1.868     1.167  80.42  80.42  +0.00  +0.00  +0.00
       345      9870.33     93.66408     107.0362     7.196678    708.7132   1587.5972   3.6100096e-01   3.6174163e-01   1.8321812e-02     1.685     1.643 -43.84 -43.84  +0.00  +0.00  +0.00
       346     438.6122     58.15794     106.9053     7.196678    870.7620   1578.2637   4.1249049e-01   1.0562044e+00  -8.2487947e-01     2.176     0.892  26.02  26.02  +0.00  +0.00  +0.00
       347     454.2394     63.37615     106.8217     7.196678   1254.5577   1587.0752   6.6653299e-01   9.2164606e-01   7.9043561e-01     1.625     0.909 -36.06 -36.06  +0.00  +0.00  +0.00
       348     614.2487     64.20464     106.7896     7.196678   1662.5465   1576.1549   3.8356158e-01   9.0307295e-01  -1.3884036e-01     1.634     1.047   7.48   7.48  +0.00  +0.00  +0.00
       349     979.1031     87.84064     106.8699     7.196678   1195.0554   1552.7692   6.5558779e-01   3.6675668e-01  -6.5729213e-01     2.563     1.072  56.86  56.86  +0.00  +0.00  +0.00
       350     505.4067     61.68581     106.8239     7.196678   1233.7216   1573.3367   6.1796468e-01   8.5425884e-01  -3.7276492e-01     1.393     1.022  28.81  28.81  +0.00  +0.00  +0.00
       351     76.41921     22.98895     106.8795     7.196678   1175.5461   1581.4634   4.5414586e+00   2.0954561e+00   1.8435286e+00     0.748     0.454 -71.50 -71.50  +0.00  +0.00  +0.00
       352     280.6615     47.11332      106.908     7.196678   1114.7664   1559.2605   1.2962499e+00   7.2330314e-01   1.8705964e-01     1.188     0.873 -80.96 -80.96  +0.00  +0.00  +0.00
       353     345.8326     53.42148     106.9344     7.196678    844.5405   1561.9657   2.7534452e-01   8.3435744e-01  -2.3394877e-03     1.906     1.095   0.12   0.12  +0.00  +0.00  +0.00
       354     184.7338     39.81802     106.8144     7.196678    442.0191   1544.3429   1.9616746e+00   3.1426272e-01   1.5297079e-01     1.794     0.713 -87.35 -87.35  +0.00  +0.00  +0.00
       355     361.0516     49.30579     106.7423     7.196678    348.7322   1580.1696   1.0421804e+00   4.8948961e-01  -5.1769733e-01     1.607     0.935  68.44  68.44  +0.00  +0.00  +0.00
       356     268.0711     44.81371     107.1101     7.196678    813.5499   1544.3069   3.6786991e-01   8.3529150e-01  -1.3363594e-01     1.670     1.088   7.98   7.98  +0.00  +0.00  +0.00
       357     218.8185     39.81802     106.8699     7.196678   1860.4148   1764.1760   5.6861711e-01   9.6784091e-01   6.8882459e-01     1.644     0.926 -29.95 -29.95  +0.00  +0.00  +0.00
       358      9755.73     90.21513     106.8855     7.196678    754.6653   1741.7791   3.6852801e-01   3.8441861e-01   1.8445611e-02     1.657     1.604 -24.63 -24.63  +0.00  +0.00  +0.00
       359     202.2309     43.61846     107.2757     7.196678    766.8491   1519.0309   3.3304864e-01   1.7677991e+00   9.5767319e-02     1.737     0.752  -1.91  -1.91  +0.00  +0.00  +0.00
       360     277.6317     43.61846     106.7978     7.196678   1798.8076   1518.3518   5.6546080e-01   1.1781578e+00   5.3501625e-02     1.331     0.921  -2.50  -2.50  +0.00  +0.00  +0.00
       361     247.7761     42.38952     106.8087     7.196678    127.2364   1727.1562   2.0624802e-01   1.0225332e+00   2.8764164e-01     2.346     0.977  -9.71  -9.71  +0.00  +0.00  +0.00
       362       356.99     53.42148     106.9216     7.196678   1158.4100   1529.8757   4.7975764e-01   7.5431097e-01  -5.1521546e-01     1.754     1.049  30.97  30.97  +0.00  +0.00  +0.00
       363     207.8705     43.61846     106.8347     7.196678    394.0519   1754.7864   2.7738297e-01   1.1222193e+00  -3.9486876e-01     2.069     0.926  12.53  12.53  +0.00  +0.00  +0.00
       364     189.2781     39.81802     106.7272     7.196678   1995.3832   1498.8267   6.5342224e-01   9.5865756e-01  -4.8341623e-01     1.387     0.957  28.87  28.87  +0.00  +0.00  +0.00
       365     424.4559     56.31118     106.8912     7.196678     98.0688   1786.7607   5.2076119e-01   1.7562373e+00  -1.7735312e+00     4.160     0.671  27.57  27.57  +0.00  +0.00  +0.00
       366     9941.471     102.2943     106.8326     7.196678    134.0240   1791.4762   3.8167241e-01   3.9487821e-01  -3.6347921e-03     1.619     1.591   7.69   7.69  +0.00  +0.00  +0.00
       367     268.3865     42.38952     106.8722     7.196678   1427.7336   1686.0713   4.0976495e-01   1.1743263e+00   2.8152332e-01     1.612     0.913 -10.11 -10.11  +0.00  +0.00  +0.00
       368     197.9886     39.81802     106.8041     7.196678   1724.3519   1489.8173   1.3988137e+00   4.7766289e-01  -6.3908011e-01     1.627     0.817  72.62  72.62  +0.00  +0.00  +0.00
       369     9799.332     95.89449     106.8034     7.196678   1906.7521   1494.9338   3.3097985e-01   3.8610274e-01   4.7885352e-03     1.738     1.609  -2.48  -2.48  +0.00  +0.00  +0.00
       370     250.5696     43.61846     107.2895     7.196678    783.8269   1496.0050   7.9647326e-01   5.2158856e-01  -4.8941858e-02     1.388     1.119  84.95  84.95  +0.00  +0.00  +0.00
       371      670.457     72.69743     107.3432     7.196678    709.9191   1485.4655   2.9186612e-01   4.7625747e-01  -2.7924854e-01     2.148     1.347  28.28  28.28  +0.00  +0.00  +0.00
       372     258.9128     43.61846     106.7859     7.196678   1751.5929   1538.5785   5.0059223e-01   3.0708045e-01   1.9465211e-01     1.937     1.359 -67.42 -67.42  +0.00  +0.00  +0.00
       373     700.4099     71.96678     106.7591     7.196678    180.5301   1761.4517   1.4011425e+00   3.6401567e-01  -3.7484911e-01     1.738     0.835  80.06  80.06  +0.00  +0.00  +0.00
       374     9700.085     87.84064     106.9025     7.196678    501.0518   1468.5878   3.8676327e-01   3.8655818e-01   1.0898236e-02     1.620     1.597 -45.54 -45.54  +0.00  +0.00  +0.00
       375     264.6468     41.12387     106.7074     7.196678   2010.1450   1757.9948   5.9671420e-01   9.4782013e-01  -8.2277691e-01     1.754     0.906  33.45  33.45  +0.00  +0.00  +0.00
       376     206.2422     41.12387     106.7977     7.196678    395.1790   1826.2278   1.6436329e+00   4.2462271e-01   1.0562236e+00     2.096     0.737 -69.55 -69.55  +0.00  +0.00  +0.00
       377     191.6897     39.81802     106.7567     7.196678    218.1709   1467.0874   7.6913744e-01   1.0322914e+00   7.0926499e-01     1.383     0.884 -34.82 -34.82  +0.00  +0.00  +0.00
       378     257.5578     47.11332     106.8692     7.196678   1710.9912   1729.0853   7.9287064e-01   4.9254724e-01  -6.5535724e-01     1.882     0.998  57.31  57.31  +0.00  +0.00  +0.00
       379     245.7014     44.81371     106.9173     7.196678   1326.9575   1627.6205   1.4619504e+00   3.4175432e-01   3.0901766e-01     1.765     0.821 -82.29 -82.29  +0.00  +0.00  +0.00
       380     9644.611     87.84064     106.9574     7.196678    497.6678   1850.8147   3.8040739e-01   3.9210477e-01  -1.1768115e-02     1.627     1.592  22.59  22.59  +0.00  +0.00  +0.00
       381     245.1376     42.38952     106.8158     7.196678   1839.9285   1467.2819   4.9986106e-01   8.0051374e-01  -4.5810425e-01     1.630     1.040  28.36  28.36  +0.00  +0.00  +0.00
       382     221.7883     39.81802      106.761     7.196678   1043.8900   1764.7300   1.6514288e+00   1.0948720e+00  -2.1627517e+00     1.974     0.634  52.22  52.22  +0.00  +0.00  +0.00
       383     328.0503     44.81371     106.8972     7.196678     79.8886   1828.0990   3.6713415e-01   6.0715443e-01  -6.8902063e-01     2.859     1.083  35.40  35.40  +0.00  +0.00  +0.00
       384      192.974     39.81802      106.868     7.196678    460.1077   1455.0525   1.6900094e+00   7.5023651e-01  -1.3954809e+00     1.625     0.697  61.98  61.98  +0.00  +0.00  +0.00
       385     262.5923     45.97789     106.9026     7.196678   1817.1058   1824.0430   2.9846233e-01   1.0317758e+00  -4.1890699e-01     2.029     0.959  14.87  14.87  +0.00  +0.00  +0.00
       386     234.0512     43.61846     107.4088     7.196678    650.0281   1448.0945   5.9887546e-01   2.7231848e-01  -4.3946555e-01     2.486     1.187  63.31  63.31  +0.00  +0.00  +0.00
       387     258.1969     43.61846     107.3683     7.196678    687.1652   1439.9464   5.3680778e-01   5.1093662e-01  -1.8546177e-02     1.403     1.361  72.18  72.18  +0.00  +0.00  +0.00
       388     203.4108     39.81802     106.7696     7.196678   1571.9064   1714.6936   2.9047227e+00   3.8306701e-01  -1.4853011e+00     2.353     0.567  74.75  74.75  +0.00  +0.00  +0.00
       389     224.6807     44.81371     106.8072     7.196678   1717.5645   1437.4185   2.4796574e-01   1.1308366e+00  -3.2651800e-01     2.138     0.928  10.15  10.15  +0.00  +0.00  +0.00
       390     252.9914     43.61846     106.7592     7.196678   1160.1425   1845.6923   6.3746774e-01   3.9149487e-01   1.2052693e-01     1.628     1.239 -76.95 -76.95  +0.00  +0.00  +0.00
       391      166.345     39.81802     106.6992     7.196678   2019.3542   1824.6067   1.2952628e+00   8.8712382e-01   1.4074672e+00     1.670     0.740 -53.09 -53.09  +0.00  +0.00  +0.00
       392     183.4415     39.81802     106.8403     7.196678    874.3634   1825.7172   7.0765281e-01   8.9886099e-01  -4.8543248e-02     1.191     1.053   7.12   7.12  +0.00  +0.00  +0.00
       393     9622.363     90.21513     106.8582     7.196678    786.9597   1837.5109   3.7166357e-01   3.8563970e-01   2.5085302e-02     1.657     1.595 -30.44 -30.44  +0.00  +0.00  +0.00
       394     209.4227     43.61846     107.1652     7.196678    608.8228   1426.0651   3.7627846e-01   2.0429447e+00  -5.0415480e-01     1.718     0.693   8.42   8.42  +0.00  +0.00  +0.00
       395     227.6522     39.81802     106.8923     7.196678   1849.0758   1843.6499   9.4834781e-01   6.1914819e-01  -5.3855979e-01     1.462     0.954  60.72  60.72  +0.00  +0.00  +0.00
       396     9880.588     94.78585     106.7823     7.196678   1298.0001   1392.0521   3.6890623e-01   3.5137239e-01  -3.3944167e-02     1.712     1.624  58.66  58.66  +0.00  +0.00  +0.00
       397     289.2203     43.61846      106.832     7.196678   1247.5488   1430.7747   2.0675373e+00   1.2569745e+00   2.2302902e-01     0.897     0.693 -82.31 -82.31  +0.00  +0.00  +0.00
       398     248.1725     39.81802     106.8523     7.196678    842.2204   1862.1963   2.2814627e+00   3.6039123e-01   6.8158382e-01     1.821     0.654 -80.23 -80.23  +0.00  +0.00  +0.00
       399     206.7565     39.81802      106.689     7.196678     17.8115   1420.6976   1.8521613e+00   6.5554142e-01  -1.1452131e+00     1.533     0.693  68.13  68.13  +0.00  +0.00  +0.00
       400     9730.733     91.95578     106.7961     7.196678    193.9238   1412.4625   3.6879832e-01   3.7696001e-01   1.8074667e-02     1.660     1.616 -32.85 -32.85  +0.00  +0.00  +0.00
       401     250.5277     43.61846     106.7953     7.196678   1952.7441   1849.9579   8.3079779e-01   3.3844087e-01   3.8404879e-01     1.916     1.056 -71.02 -71.02  +0.00  +0.00  +0.00
       402     9691.267     89.62741     106.6139     7.196678   2017.7661   1872.9519   3.7929878e-01   3.8935712e-01   8.6293565e-03     1.627     1.599 -20.31 -20.31  +0.00  +0.00  +0.00
       403     186.5203     41.12387     106.8618     7.196678   1736.5417   1853.2157   2.3133080e+00   8.8913131e-01   7.9731248e-02     1.061     0.657 -88.40 -88.40  +0.00  +0.00  +0.00
       404     195.7324     41.12387      107.147     7.196678    535.5302   1384.4343   2.2938602e-01   1.5860795e+00   3.0629787e-01     2.170     0.790  -6.36  -6.36  +0.00  +0.00  +0.00
       405     189.9624     39.81802     106.7425     7.196678   1127.9508   1868.2050   1.0616186e+00   5.6643957e-01  -3.1046343e-01     1.384     0.951  73.96  73.96  +0.00  +0.00  +0.00
       406     232.3794     44.81371     106.7126     7.196678   2004.2196   1706.9165   5.2599353e-01   8.6564964e-01  -3.1668735e-01     1.469     1.038  21.50  21.50  +0.00  +0.00  +0.00
       407     223.8866     43.61846     107.0063     7.196678    978.7504   1385.7867   1.0442466e+00   3.7948930e-01  -4.3560863e-01     1.783     0.949  73.38  73.38  +0.00  +0.00  +0.00
       408     9813.115     99.14607     106.8541     7.196678   1689.6434   1849.9023   3.8738066e-01   3.7090302e-01  -1.1413799e-02     1.646     1.603  72.65  72.65  +0.00  +0.00  +0.00
       409     198.1035     39.81802     106.7933     7.196678   1753.4961   1349.7780   5.9983945e-01   9.0146369e-01  -8.4315193e-01     1.817     0.913  35.16  35.16  +0.00  +0.00  +0.00
       410     194.8472     42.38952     106.7716     7.196678   1596.5975   1881.3757   2.8334609e-01   7.0429510e-01  -2.6527515e-01     2.020     1.160  16.11  16.11  +0.00  +0.00  +0.00
       411     468.4355     59.94783     106.8579     7.196678     99.6505   1706.2327   6.5072817e-01   1.6547111e+00   1.2078519e+00     1.650     0.718 -25.13 -25.13  +0.00  +0.00  +0.00
       412     255.7013     45.97789     107.2979     7.196678    792.3028   1357.6791   8.4220904e-01   5.8406824e-01   3.9381620e-01     1.447     1.027 -61.62 -61.62  +0.00  +0.00  +0.00
       413     232.4828     42.38952      106.803     7.196678   1364.7484   1373.6121   1.2307042e+00   6.0387623e-01  -1.0919305e+00     1.864     0.804  59.93  59.93  +0.00  +0.00  +0.00
       414      1337.47     102.2943     107.2668     7.196678    732.1212   1284.5608   1.0384563e-01   3.9245203e-01  -3.4935987e-01     6.808     1.451  25.22  25.22  +0.00  +0.00  +0.00
       415     771.0653     77.61961     107.3002     7.196678    851.9246   1354.2316   2.0393530e-01   3.7154451e-01  -3.8215402e-01     3.556     1.419  33.16  33.16  +0.00  +0.00  +0.00
       416     309.8406     50.36626     106.9125     7.196678   1411.1534   1676.5367   7.9200149e-01   1.9283041e-01  -1.3960224e-01     2.326     1.118  83.44  83.44  +0.00  +0.00  +0.00
       417     257.3861     45.97789     106.8345     7.196678   1898.3743   1901.6609   9.6678025e-01   4.9061990e-01   6.7519212e-01     1.780     0.936 -62.60 -62.60  +0.00  +0.00  +0.00
       418     1474.457     102.2943     107.3027     7.196678    407.3269   1097.6677   9.8882355e-02   1.8614930e-01  -2.1256825e-01     6.017     1.971  33.84  33.84  +0.00  +0.00  +0.00
       419     9978.236     100.2065     106.9027     7.196678     74.8869   1900.4149   3.7264740e-01   3.6917460e-01   3.6906905e-02     1.685     1.602 -47.69 -47.69  +0.00  +0.00  +0.00
       420       222.12     42.38952     106.7602     7.196678   1538.5856   1908.2662   1.2251987e+00   3.5421088e-01   4.7843602e-01     1.848     0.882 -75.61 -75.61  +0.00  +0.00  +0.00
       421     209.9352     41.12387     106.8364     7.196678   1938.1458   1894.1832   8.4927607e-01   1.1056116e+00   1.2396276e+00     1.704     0.788 -39.16 -39.16  +0.00  +0.00  +0.00
       422     228.3152     42.38952     106.7739     7.196678   1580.7756   1877.7495   4.9040806e-01   1.0177001e+00  -3.4564072e-01     1.510     0.967  16.62  16.62  +0.00  +0.00  +0.00
       423     237.5988     43.61846     106.6488     7.196678   1993.3398   1899.5852   1.2852383e+00   5.8672309e-01  -1.0223823e+00     1.776     0.802  62.17  62.17  +0.00  +0.00  +0.00
       424     280.4861     45.97789      107.103     7.196678    785.9227   1157.5763   3.4917685e-01   7.3189777e-01  -5.3720915e-01     2.178     1.072  27.27  27.27  +0.00  +0.00  +0.00
       425      238.647     44.81371     106.7106     7.196678   1274.1027   1902.8185   2.3557185e-01   7.0571643e-01  -1.5242101e-01     2.115     1.180   8.98   8.98  +0.00  +0.00  +0.00
       426     226.9467     39.81802     106.7344     7.196678   1181.6577   1898.6796   2.4061375e+00   2.8092239e+00   3.3138113e+00     1.032     0.484 -41.53 -41.53  +0.00  +0.00  +0.00
       427     249.1494     39.81802     106.7794     7.196678   1497.2277   1918.7922   3.4258693e-01   7.9374486e-01  -3.7742674e-01     1.910     1.077  19.96  19.96  +0.00  +0.00  +0.00
       428     244.5518     44.81371     106.8664     7.196678   1162.8976   1329.4751   4.1504899e-01   4.0438209e+00   3.2756522e-01     1.566     0.497  -2.58  -2.58  +0.00  +0.00  +0.00
       429     341.7238     50.36626     106.8527     7.196678    869.0760   1915.2390   1.9196565e-01   9.4875330e-01  -2.1187438e-01     2.374     1.019   7.82   7.82  +0.00  +0.00  +0.00
       430     223.2596     39.81802      106.718     7.196678   1902.9994   1315.9233   2.6359735e+00   8.2695001e-01   1.2775201e+00     1.266     0.594 -72.39 -72.39  +0.00  +0.00  +0.00
       431     9746.085     93.66408     106.9875     7.196678   1015.7069   1302.5045   3.6254179e-01   3.6909434e-01   1.9955812e-02     1.678     1.630 -35.91 -35.91  +0.00  +0.00  +0.00
       432     1178.764     93.66408     107.2923     7.196678    695.6376   1264.2021   1.5988626e-01   4.8069361e-01  -4.8945364e-01     6.011     1.277  28.38  28.38  +0.00  +0.00  +0.00
       433     258.6341     39.81802     107.0474     7.196678    943.5026   1260.5033   3.6484045e-01   1.0805544e+00   1.7164676e-02     1.656     0.962  -0.69  -0.69  +0.00  +0.00  +0.00
       434     950.4553     86.01675     107.7472     7.196678    233.5869   1117.3440   2.9851753e-01   5.7170725e-01  -7.1989596e-01     4.467     1.104  34.61  34.61  +0.00  +0.00  +0.00
       435      231.323     44.81371     106.9772     7.196678   1583.9569   1295.7006   3.9017317e-01   1.0694195e+00  -1.1035980e-01     1.610     0.965   4.61   4.61  +0.00  +0.00  +0.00
       436     899.5795     82.24775     107.6131     7.196678    409.1630   1218.7288   1.9552833e-01   3.4009832e-01  -4.0657225e-01     4.383     1.438  35.21  35.21  +0.00  +0.00  +0.00
       437     522.2842     64.20463     107.6081     7.196678    418.7509   1243.7194   5.8419263e-01   6.3418001e-01  -8.5634953e-01     2.355     0.981  43.33  43.33  +0.00  +0.00  +0.00
       438     253.8526     45.97789     107.3932     7.196678    487.5119   1232.4377   7.0068008e-01   6.0142612e-01  -8.6947060e-01     2.164     0.958  48.26  48.26  +0.00  +0.00  +0.00
       439     968.0081     87.23692     107.5769     7.196678    343.4387   1202.0763   1.6162676e-01   3.0405602e-01  -2.9094294e-01     3.756     1.591  31.96  31.96  +0.00  +0.00  +0.00
       440     712.3566     69.72892     107.6012     7.196678    394.4313   1210.6592   2.6336017e-01   6.3374358e-01  -6.4563560e-01     3.618     1.104  30.08  30.08  +0.00  +0.00  +0.00
       441     250.9346     43.61846     106.7212     7.196678   1979.4716   1287.8228   1.1145744e+00   1.1085666e+00  -1.7075622e+00     1.970     0.713  45.10  45.10  +0.00  +0.00  +0.00
       442     365.2744     52.42286     106.9512     7.196678   1593.8273   1301.5220   3.7969437e-01   1.0844276e+00  -9.1642386e-01     2.548     0.874  26.22  26.22  +0.00  +0.00  +0.00
       443     852.3444     76.93572     107.5581     7.196678    353.8269   1206.8861   3.0054697e-01   3.1203562e-01  -4.2679515e-01     3.282     1.387  44.23  44.23  +0.00  +0.00  +0.00
       444     200.7502     39.81802     106.6833     7.196678   2022.9849   1300.1628   8.3553809e-01   9.3048817e-01   9.1331893e-01     1.536     0.863 -42.03 -42.03  +0.00  +0.00  +0.00
       445     987.7699      89.0358     107.2216     7.196678    639.1338   1231.9777   2.5004131e-01   4.6924394e-01  -5.9522390e-01     4.851     1.216  34.89  34.89  +0.00  +0.00  +0.00
       446     508.4762     62.53669     106.8933     7.196678   1623.9574   1240.2908   1.7046043e+00   1.3137475e+00   2.4736574e+00     1.973     0.602 -49.49 -49.49  +0.00  +0.00  +0.00
       447      418.127     60.82303     107.6638     7.196678    396.2203   1231.5574   1.8883428e-01   3.9829478e-01   2.9103784e-04     2.301     1.585  -0.04  -0.04  +0.00  +0.00  +0.00
       448     207.6463     39.81802     106.9727     7.196678   1559.1464   1282.0323   4.9158442e-01   9.3455380e-01   7.1444815e-01     1.848     0.939 -29.10 -29.10  +0.00  +0.00  +0.00
       449      1034.61     87.84064     107.1304     7.196678    597.7461   1207.4834   1.9294861e-01   5.8569145e-01  -5.8532745e-01     5.207     1.161  28.07  28.07  +0.00  +0.00  +0.00
       450     1209.719     84.77904     107.0526     7.196678      3.6958   1281.5452   4.0556234e-01   4.6547362e-01  -2.9831156e-01     1.879     1.304  39.32  39.32  +0.00  +0.00  +0.00
       451     189.6935     41.12387     106.7032     7.196678   1841.8567   1273.0386   2.0463116e+00   3.1086484e-01   3.1255549e-01     1.835     0.697 -84.90 -84.90  +0.00  +0.00  +0.00
       452     673.2975     70.48277     107.4817     7.196678    467.9987   1272.1006   1.5820430e-01   3.4253827e-01  -1.3960682e-01     2.724     1.653  18.57  18.57  +0.00  +0.00  +0.00
       453     897.4144     87.23692      107.001     7.196678   1544.0615   1273.7188   8.3130807e-01   3.6022159e-01  -5.8603698e-01     2.133     1.014  64.40  64.40  +0.00  +0.00  +0.00
       454     94.27908     29.07897      107.487     7.196678    333.3305   1269.3024   1.9494652e+00   1.7686601e+00   1.8408210e+00     1.035     0.599 -47.80 -47.80  +0.00  +0.00  +0.00
       455     1025.507     91.95578     107.2481     7.196678    713.3984   1274.2756   1.4410248e-01   3.1158048e-01  -3.3938706e-01     5.089     1.548  31.87  31.87  +0.00  +0.00  +0.00
       456     218.5616     42.38952     107.3034     7.196678    864.2674   1212.5248   1.0907596e+00   1.1101584e+00  -1.4451158e+00     1.627     0.741  44.62  44.62  +0.00  +0.00  +0.00
       457     221.7562     39.81802     107.0942     7.196678    926.7704   1248.6287   1.4280800e+00   7.3012406e-01   1.4094930e+00     1.848     0.732 -58.17 -58.17  +0.00  +0.00  +0.00
       458     208.5447     41.12387     106.6607     7.196678   1837.9163   1216.7876   1.0966046e+00   2.5851086e-01  -5.1421994e-01     2.319     0.925  74.23  74.23  +0.00  +0.00  +0.00
       459     559.5664      66.6283     107.3132     7.196678    653.8435   1240.2450   1.8747684e-01   2.8394964e-01  -2.3621778e-01     3.041     1.659  33.89  33.89  +0.00  +0.00  +0.00
       460     184.6649     39.81802     106.8214     7.196678   1712.7451   1243.7987   1.7687275e+00   5.3247499e-01   1.2421474e+00     1.909     0.702 -67.43 -67.43  +0.00  +0.00  +0.00
       461     250.6393     44.81371     107.5486     7.196678    379.0222   1260.9569   3.5995439e-01   5.5021769e-01  -3.2062411e-01     1.929     1.249  29.66  29.66  +0.00  +0.00  +0.00
       462     579.0474      66.6283     107.5411     7.196678    438.0739   1255.2407   2.3808278e-01   5.7440865e-01  -4.9071753e-01     3.032     1.192  27.79  27.79  +0.00  +0.00  +0.00
       463     821.5547     78.29752     107.5524     7.196678    363.4913   1213.2798   1.9530742e-01   4.1398603e-01  -4.3560711e-01     4.051     1.350  31.67  31.67  +0.00  +0.00  +0.00
       464     1078.216     91.95578     107.5398     7.196678    374.7314   1199.0148   1.9526049e-01   3.4915736e-01  -3.8226983e-01     3.888     1.446  34.04  34.04  +0.00  +0.00  +0.00
       465     378.3246     52.42286     107.6256     7.196678    388.3940   1226.4618   4.3590620e-01   5.2060986e-01  -1.7858908e-01     1.623     1.316  32.31  32.31  +0.00  +0.00  +0.00
       466     370.8973     55.36471     107.1071     7.196678    778.7768   1163.9464   2.4657357e-01   5.9260100e-01  -4.5760617e-01     2.745     1.190  26.45  26.45  +0.00  +0.00  +0.00
       467      215.756     41.12387     106.8871     7.196678   1654.5295   1234.5465   1.7716336e+00   1.3017675e+00  -3.7449366e-01     0.899     0.738  70.72  70.72  +0.00  +0.00  +0.00
       468     209.8152     39.81802     106.8841     7.196678   1366.9985   1194.2325   3.5524386e-01   1.3123060e+00  -5.3884846e-01     1.874     0.850  14.69  14.69  +0.00  +0.00  +0.00
       469     208.3915     39.81802     107.8055     7.196678    264.2712   1226.9238   8.8999426e-01   1.0586219e+00  -1.0982231e+00     1.545     0.808  40.64  40.64  +0.00  +0.00  +0.00
       470     1787.098     117.6711     107.5912     7.196678    378.6400   1221.6526   1.3336866e-01   3.5775959e-01  -3.5544705e-01     5.316     1.481  28.87  28.87  +0.00  +0.00  +0.00
       471     674.7338     69.72892       107.17     7.196678    508.9484   1157.4263   2.1005927e-01   6.6109180e-01  -4.6493244e-01     2.992     1.147  22.93  22.93  +0.00  +0.00  +0.00
       472     9668.836     91.95578     106.8155     7.196678   1580.9730   1188.9193   3.6250365e-01   3.7648347e-01  -5.8379793e-03     1.662     1.629  11.33  11.33  +0.00  +0.00  +0.00
       473     550.4329     68.19624      106.651     7.196678   1902.0812   1191.6105   3.6562610e-01   5.1850879e-01   4.8433772e-01     2.306     1.199 -36.24 -36.24  +0.00  +0.00  +0.00
       474     231.0899     39.81802     106.8228     7.196678   1776.5103   1684.2195   5.7565856e-01   1.5351417e+00   8.2137042e-01     1.536     0.770 -20.28 -20.28  +0.00  +0.00  +0.00
       475      1390.85     99.67769     107.1329     7.196678    577.5439   1196.0931   1.4731167e-01   4.0741056e-01  -4.3283170e-01     6.340     1.374  29.50  29.50  +0.00  +0.00  +0.00
       476     9629.612     91.37925     106.8106     7.196678   1018.6509   1608.5225   3.6691356e-01   3.9333889e-01  -1.2411679e-02     1.654     1.592  12.58  12.58  +0.00  +0.00  +0.00
       477     1406.362     104.8457      107.137     7.196678    561.5316   1187.2450   9.3453832e-02   2.0198092e-01  -2.4178417e-01     8.110     1.889  32.91  32.91  +0.00  +0.00  +0.00
       478     473.6425     59.94783     107.6049     7.196678    360.2540   1190.2854   2.8594700e-01   9.2045307e-01  -7.9795009e-01     3.271     0.948  25.75  25.75  +0.00  +0.00  +0.00
       479     304.7897     50.36626     107.6815     7.196678    341.7210   1179.8273   7.3834306e-01   9.1044891e-01  -1.2844961e+00     2.381     0.824  41.18  41.18  +0.00  +0.00  +0.00
       480     472.5704     59.05967     107.7294     7.196678    326.0575   1171.0745   2.6719838e-01   3.8430467e-01  -3.0671805e-01     2.488     1.429  34.55  34.55  +0.00  +0.00  +0.00
       481     357.1678     49.30579     107.7057     7.196678    334.8035   1175.6663   6.3705128e-01   5.5921859e-01   1.7984664e-01     1.414     1.199 -56.70 -56.70  +0.00  +0.00  +0.00
       482     322.1584     52.42286     107.1053     7.196678    787.8997   1169.5022   6.4479166e-01   2.1396542e-01  -2.1008724e-01     2.296     1.223  77.00  77.00  +0.00  +0.00  +0.00
       483     514.0327     65.02255     107.1217     7.196678    802.3358   1177.2631   5.0558722e-01   4.5070761e-01  -4.3691412e-01     1.969     1.197  48.58  48.58  +0.00  +0.00  +0.00
       484     259.7469     42.38952     107.7834     7.196678    190.1704   1184.9987   7.3738933e-01   2.2734520e+00  -2.1459508e+00     2.319     0.595  27.20  27.20  +0.00  +0.00  +0.00
       485     465.5091     60.82303      107.707     7.196678    316.8322   1165.2562   2.5276673e-01   7.6984584e-01  -6.1306119e-01     3.011     1.047  24.93  24.93  +0.00  +0.00  +0.00
       486      470.466     60.82303     107.6858     7.196678    287.4666   1147.2000   4.0262854e-01   2.1220650e-01  -1.6416983e-01     2.346     1.519  69.62  69.62  +0.00  +0.00  +0.00
       487     229.2855     39.81802     107.7067     7.196678    281.6145   1145.3884   9.7863674e-01   8.6441869e-01  -6.7506063e-01     1.314     0.890  49.80  49.80  +0.00  +0.00  +0.00
       488     328.6198     54.40178     107.1341     7.196678    731.5281   1137.0974   3.1834221e-01   2.6013055e-01  -3.2502346e-02     1.977     1.761  75.41  75.41  +0.00  +0.00  +0.00
       489     618.7461     68.19624     107.1121     7.196678    627.6878   1076.8983   2.9625073e-01   8.4078771e-01  -8.2645804e-01     3.685     0.970  28.31  28.31  +0.00  +0.00  +0.00
       490     185.6696     41.12387     107.7871     7.196678    133.4478   1153.7479   1.0736125e+00   6.6167974e-01  -6.3667160e-01     1.431     0.896  61.45  61.45  +0.00  +0.00  +0.00
       491     406.0058     58.15794     106.9521     7.196678   1354.8409   1643.4220   3.9825109e-01   1.3668668e+00  -1.5387677e-01     1.597     0.853   4.51   4.51  +0.00  +0.00  +0.00
       492     822.4526     80.95243     107.7438     7.196678    244.9279   1123.5558   1.8103707e-01   4.5837486e-01  -4.5340827e-01     4.305     1.307  29.27  29.27  +0.00  +0.00  +0.00
       493     350.9528     50.36626     106.8448     7.196678    832.5148   1893.3469   6.2583250e-01   4.6551570e-01  -7.9396254e-01     2.666     1.026  50.71  50.71  +0.00  +0.00  +0.00
       494     9733.229     95.34178     107.3098     7.196678   1126.9219   1136.2648   3.7040022e-01   3.6250561e-01  -2.2126865e-02     1.679     1.626  54.82  54.82  +0.00  +0.00  +0.00
       495     467.2965     60.82303     107.6397     7.196678    351.9568   1186.3246   4.6286187e-01   6.3772744e-01  -8.0417961e-01     2.684     1.020  38.87  38.87  +0.00  +0.00  +0.00
       496     518.9471     65.83032     107.2453     7.196678    422.1185   1105.8328   2.6805833e-01   4.9140838e-01  -4.9531892e-01     3.042     1.239  32.86  32.86  +0.00  +0.00  +0.00
       497     10204.94     107.3365     107.1188     7.196678    754.3126   1157.1865   3.6498144e-01   2.8316954e-01  -2.9010609e-02     1.888     1.650  80.24  80.24  +0.00  +0.00  +0.00
       498     282.2166     45.97789     106.8659     7.196678   1740.1461   1781.0117   3.6644661e-01   9.1910994e-01   7.3831058e-01     2.346     0.952 -26.59 -26.59  +0.00  +0.00  +0.00
       499     1007.944     86.62898     107.6609     7.196678    299.6337   1155.3654   4.7919548e-01   7.4813825e-01  -1.1065594e+00     4.752     0.919  38.17  38.17  +0.00  +0.00  +0.00
       500     499.1397     60.82303     106.8576     7.196678   1436.0190   1691.9587   3.0201229e-01   9.2789495e-01  -4.2083129e-01     2.050     1.004  16.96  16.96  +0.00  +0.00  +0.00
       501     178.3864     39.81802     106.6325     7.196678   1941.5303   1124.9623   4.0093818e+00   8.1172705e-01  -4.4386182e-02     1.110     0.499  89.60  89.60  +0.00  +0.00  +0.00
       502     94.96506     29.07897     106.8134     7.196678   1401.5197   1125.2465   1.0382094e+00   3.1752815e+00   1.7121853e+00     1.164     0.536 -19.35 -19.35  +0.00  +0.00  +0.00
       503     9966.129     102.2943     106.8166     7.196678   1772.8099   1635.7377   3.5022920e-01   3.6778620e-01   4.8475165e-02     1.732     1.612 -35.05 -35.05  +0.00  +0.00  +0.00
       504     533.0027     67.41682     106.7666     7.196678   1685.5986   1932.3075   5.6385428e-01   7.8628647e-01  -9.8446459e-01     2.422     0.921  38.63  38.63  +0.00  +0.00  +0.00
       505     251.0472     45.97789     107.3507     7.196678   1158.9353   1087.4240   5.3023183e-01   2.8144178e+00  -3.1467974e-01     1.387     0.595   3.92   3.92  +0.00  +0.00  +0.00
       506     192.7438     39.81802     106.6188     7.196678   1877.8361   1076.6832   2.2310317e+00   9.0851671e-01   3.4188870e-01     1.062     0.666 -82.75 -82.75  +0.00  +0.00  +0.00
       507     214.8313     39.81802     106.6791     7.196678   1814.6805   1115.8988   1.9922580e-01   2.8486061e+00   2.7793694e-01     2.282     0.592  -2.99  -2.99  +0.00  +0.00  +0.00
       508     223.3248     42.38952     106.7994     7.196678    944.9499   1957.1997   1.1641815e+00   7.5867134e-01   1.4837451e+00     2.280     0.760 -52.64 -52.64  +0.00  +0.00  +0.00
       509     361.7423     53.42148      106.931     7.196678   1347.0905   1639.3354   1.2139916e+00   1.2600418e+00  -1.9566849e+00     1.967     0.672  44.33  44.33  +0.00  +0.00  +0.00
       510     751.4317     74.84658     107.7824     7.196678    184.0993   1088.8052   3.3857834e-01   8.2449071e-02   2.8682608e-02     3.500     1.717 -86.81 -86.81  +0.00  +0.00  +0.00
       511     283.8156     48.22202     106.8119     7.196678   1736.4729   1664.2368   7.2223181e-01   1.0551251e+00  -1.1254854e+00     1.820     0.823  36.76  36.76  +0.00  +0.00  +0.00
       512     294.9936     47.11332     106.9089     7.196678   1358.4827   1099.4745   5.7223648e-01   1.1292918e+00   5.4340494e-01     1.472     0.898 -22.14 -22.14  +0.00  +0.00  +0.00
       513     9841.521     96.44404     106.8267     7.196678   1411.5292   1096.6185   3.7681118e-01   3.9382643e-01  -1.2036739e-02     1.633     1.590  17.64  17.64  +0.00  +0.00  +0.00
       514     221.8813     44.81371     107.1172     7.196678    656.0142   1094.2898   8.1477880e-01   5.1151371e-01   3.8310956e-02     1.400     1.107 -86.40 -86.40  +0.00  +0.00  +0.00
       515     9872.941     94.78585      106.645     7.196678   1814.4276   1063.4519   3.7746850e-01   3.4329173e-01  -1.7442556e-02     1.712     1.623  76.48  76.48  +0.00  +0.00  +0.00
       516      1172.32     92.52872     107.7886     7.196678    160.9952   1075.4114   2.1501228e-01   5.2291125e-01  -5.7526529e-01     4.838     1.199  30.92  30.92  +0.00  +0.00  +0.00
       517     197.0353     39.81802     107.8995     7.196678     52.4533   1070.7731   4.4391859e-01   2.0710688e+00  -1.3045431e+00     2.158     0.659  19.36  19.36  +0.00  +0.00  +0.00
       518     350.8997     50.36625     106.9062     7.196678   1396.0892   1667.3892   4.7912830e-01   1.8026246e+00  -1.5843408e+00     3.033     0.678  25.06  25.06  +0.00  +0.00  +0.00
       519     1025.491     89.62741     107.7965     7.196678    150.8042   1068.8171   1.7689480e-01   5.2579451e-01  -4.2317754e-01     3.601     1.264  25.25  25.25  +0.00  +0.00  +0.00
       520        206.5     39.81802     106.6535     7.196678   1606.2954   1951.2634   2.3572063e+00   2.2479525e-01  -1.4772573e-02     2.109     0.651  89.80  89.80  +0.00  +0.00  +0.00
       521      526.379     61.68581     107.0777     7.196678    600.9516   1060.2029   7.9592627e-01   1.1049852e+00  -1.5506413e+00     2.501     0.758  39.36  39.36  +0.00  +0.00  +0.00
       522     236.0907     45.97789     106.6419     7.196678     63.8367   2019.2412   1.9181355e+00   3.8742435e-01   2.0571117e-01     1.621     0.721 -86.17 -86.17  +0.00  +0.00  +0.00
       523      214.371     39.81802     106.6239     7.196678   2042.4443   1767.5173   2.0769033e+00   6.1592430e-01  -6.7728972e-01     1.359     0.682  77.56  77.56  +0.00  +0.00  +0.00
       524     264.6873     43.61846     106.5454     7.196678   1953.6067   1043.2162   9.6188027e-01   1.4394919e+00   8.5452712e-01     1.186     0.769 -30.40 -30.40  +0.00  +0.00  +0.00
       525     9907.188     93.66408     106.9717     7.196678    530.9503   1437.4634   3.5093680e-01   3.5724467e-01  -7.1218545e-03     1.692     1.669  24.23  24.23  +0.00  +0.00  +0.00
       526     835.2891     80.29694     107.7604     7.196678    220.4122   1109.2323   1.2357601e-01   4.0576774e-01  -3.2606602e-01     4.515     1.443  24.56  24.56  +0.00  +0.00  +0.00
       527     202.2645     39.81802     106.5899     7.196678   2021.3296   2021.9006   6.0072052e-01   2.7804682e-01   2.3517425e-01     2.042     1.251 -71.96 -71.96  +0.00  +0.00  +0.00
       528      294.175     51.40484     106.9478     7.196678   1314.2007   1607.0007   5.8661449e-01   5.7949620e-01  -9.0600297e-02     1.364     1.261  47.25  47.25  +0.00  +0.00  +0.00
       529     267.6476     48.22202     106.9386     7.196678    797.5037   1607.0555   2.5694201e+00   1.7403096e-01   5.7054275e-01     2.668     0.620 -83.30 -83.30  +0.00  +0.00  +0.00
       530     193.9537     39.81802     106.5496     7.196678   1306.7520   2011.3285   5.8732706e-01   5.8549803e-01  -5.1952195e-01     1.750     1.087  45.10  45.10  +0.00  +0.00  +0.00
       531     484.2462     62.53669     106.7809     7.196678   1578.9260   1583.8806   3.4720749e-01   9.9683267e-01   6.2505740e-01     2.126     0.944 -21.95 -21.95  +0.00  +0.00  +0.00
       532     948.7189     82.88783     106.8925     7.196678   1284.6324   1603.4246   2.0478949e-01   3.3160305e-01  -3.7375259e-01     3.757     1.466  35.63  35.63  +0.00  +0.00  +0.00
       533     207.1137     39.81802     106.7164     7.196678   2027.5522   1039.4915   4.6699917e-01   1.5504806e+00  -5.4418212e-01     1.576     0.787  13.33  13.33  +0.00  +0.00  +0.00
       534     414.9178     59.94783     106.7992     7.196678   1674.1998   1604.7703   9.4134045e-01   8.7492263e-01  -6.3573033e-01     1.304     0.903  47.98  47.98  +0.00  +0.00  +0.00
       535     321.3362     51.40484     107.0353     7.196678    823.6451   1550.7393   2.5006738e-01   5.1002115e-01   7.6742597e-02     2.022     1.393  -8.22  -8.22  +0.00  +0.00  +0.00
       536     249.1084     44.81371     106.8122     7.196678   1694.3572   1628.6207   1.2014785e+00   1.3207314e+00   3.0784149e-02     0.913     0.870  -7.24  -7.24  +0.00  +0.00  +0.00
       537     9847.669     93.66408     106.7107     7.196678    265.9454   1982.0624   3.5932997e-01   3.6754900e-01   2.5935639e-02     1.691     1.629 -36.21 -36.21  +0.00  +0.00  +0.00
       538     249.1944     48.22202     106.8086     7.196678    425.2228   1631.1343   8.3353806e-01   6.7090905e-01  -9.3917745e-01     1.905     0.902  49.91  49.91  +0.00  +0.00  +0.00
       539     185.8812     39.81802      106.796     7.196678   1921.1521   1603.3855   8.0450219e-01   8.2876015e-01  -6.8435776e-01     1.452     0.929  43.98  43.98  +0.00  +0.00  +0.00
       540     475.5239     57.24201     106.8553     7.196678   1273.9081   1597.0222   4.0810919e-01   4.8465002e-01  -6.1898679e-01     2.726     1.148  41.48  41.48  +0.00  +0.00  +0.00
       541      240.081     41.12387     106.6929     7.196678   1994.4979   1661.5717   7.7408701e-01   6.9506508e-01   7.3393947e-01     1.654     0.952 -48.07 -48.07  +0.00  +0.00  +0.00
       542     264.6172     47.11332     106.9169     7.196678   1317.5377   1666.4159   6.9216812e-01   4.9016705e-01   6.1992788e-01     1.942     1.044 -54.02 -54.02  +0.00  +0.00  +0.00
       543     462.8153     57.24201     106.8012     7.196678   1739.7041   1956.8086   3.3584520e-01   1.4489584e+00   7.8903556e-01     2.181     0.797 -17.67 -17.67  +0.00  +0.00  +0.00
       544     786.4198     77.61961     106.9236     7.196678   1374.2999   1654.1318   2.6918122e-01   8.1205428e-01   4.2883149e-01     2.266     1.062 -19.15 -19.15  +0.00  +0.00  +0.00
       545     193.8836     39.81802     106.7486     7.196678    833.1183   1986.7979   6.8694353e-01   1.4928503e+00   8.4745419e-01     1.407     0.773 -23.22 -23.22  +0.00  +0.00  +0.00
       546     195.1269     39.81802     106.7225     7.196678   1135.7148   1966.9641   5.3797096e-01   1.0477382e+00   5.7187092e-01     1.562     0.922 -24.14 -24.14  +0.00  +0.00  +0.00
       547     225.1453     39.81802     106.8621     7.196678    693.2780   1656.2969   2.4153948e+00   2.0063553e+00  -3.9958606e+00     2.222     0.487  47.92  47.92  +0.00  +0.00  +0.00
