#   1 NUMBER                 Running object number                                     
#   2 FLUX_ISO               Isophotal flux                                             [count]
#   3 FLUXERR_ISO            RMS error for isophotal flux                               [count]
#   4 BACKGROUND             Background at centroid position                            [count]
#   5 THRESHOLD              Detection threshold above background                       [count]
#   6 X_IMAGE                Object position along x                                    [pixel]
#   7 Y_IMAGE                Object position along y                                    [pixel]
#   8 CXX_IMAGE              Cxx object ellipse parameter                               [pixel**(-2)]
#   9 CYY_IMAGE              Cyy object ellipse parameter                               [pixel**(-2)]
#  10 CXY_IMAGE              Cxy object ellipse parameter                               [pixel**(-2)]
#  11 A_IMAGE                Profile RMS along major axis                               [pixel]
#  12 B_IMAGE                Profile RMS along minor axis                               [pixel]
#  13 THETA_IMAGE            Position angle (CCW/x)                                     [deg]
#  14 THETA_WORLD            Position angle (CCW/world-x)                               [deg]
#  15 THETA_SKY              Position angle (east of north) (native)                    [deg]
#  16 THETA_J2000            Position angle (east of north) (J2000)                     [deg]
#  17 THETA_B1950            Position angle (east of north) (B1950)                     [deg]
         1     843.9918     115.1101     508.2256      22.4278    423.9148      6.9879   6.6415775e-01   1.2429080e+00  -1.6216910e-01     1.237     0.893   7.83   7.83  +0.00  +0.00  +0.00
         2     829.4234     108.3036      506.871      22.4278     19.5931    484.4564   8.9537358e-01   1.2491632e+00  -1.4199528e+00     1.714     0.745  38.00  38.00  +0.00  +0.00  +0.00
         3     1224.623     116.4253     507.9433      22.4278    250.0524    462.6613   4.5506737e-01   3.1588676e+00  -1.5538754e+00     2.009     0.545  14.94  14.94  +0.00  +0.00  +0.00
         4     660.0682     84.06624     507.9296      22.4278    244.2963    459.3372   9.0428078e-01   1.6844000e+00  -1.5177237e+00     1.506     0.682  31.40  31.40  +0.00  +0.00  +0.00
         5     1496.281     140.7418     507.9096      22.4278    236.1942    454.6981   5.0674379e-01   1.1261266e+00  -9.1037148e-01     1.939     0.855  27.89  27.89  +0.00  +0.00  +0.00
         6     586.6121      97.5879     507.0526      22.4278    350.5002    452.7748   9.6538717e-01   1.7479835e+00  -2.3383396e+00     2.842     0.621  35.75  35.75  +0.00  +0.00  +0.00
         7     833.5366     105.9715     507.0164      22.4278    339.8549    446.2435   3.6265713e-01   1.5823693e+00  -8.7230855e-01     2.119     0.762  17.79  17.79  +0.00  +0.00  +0.00
         8     704.1893     107.8401     507.2612      22.4278    157.2461    443.5407   5.0802487e-01   1.4077438e+00  -2.6379699e-01     1.430     0.837   8.17   8.17  +0.00  +0.00  +0.00
         9     827.9066     98.57197      507.165      22.4278    329.9865    440.8826   7.6577127e-01   1.6670619e+00  -1.5008792e+00     1.712     0.691  29.51  29.51  +0.00  +0.00  +0.00
        10     2015.516     157.3235      507.431      22.4278    310.9593    429.6943   3.9950171e-01   1.3052667e+00  -6.6860455e-01     1.859     0.841  18.22  18.22  +0.00  +0.00  +0.00
        11     575.9844      83.6652     507.4886      22.4278    298.9243    423.1292   6.6429728e-01   1.7948456e+00   3.4541402e-02     1.227     0.746  -0.88  -0.88  +0.00  +0.00  +0.00
        12     591.4639     83.73917     507.4884      22.4278    294.1270    419.8408   9.4354314e-01   1.8012295e+00  -1.9044687e+00     1.746     0.643  32.88  32.88  +0.00  +0.00  +0.00
        13     814.1952     90.53423     507.4886      22.4278    287.6967    416.4228   1.1985595e+00   2.3820779e+00  -1.7526793e+00     1.168     0.593  27.99  27.99  +0.00  +0.00  +0.00
        14     150.5029      46.1782     507.1112      22.4278    106.2548    414.0231   5.2685447e+00   2.1365125e+00   1.3224763e-01     0.684     0.436 -88.79 -88.79  +0.00  +0.00  +0.00
        15     1403.075     131.2199     507.5082      22.4278    269.9084    405.9560   5.0395399e-01   1.5098152e+00  -1.5328840e+00     3.330     0.721  28.36  28.36  +0.00  +0.00  +0.00
        16      164.816     46.30202     506.9507      22.4278     91.0180    405.2437   2.1488171e+00   5.4273791e+00   1.0247878e-01     0.682     0.429  -0.90  -0.90  +0.00  +0.00  +0.00
        17     945.1421     111.0191     507.5051      22.4278    178.1910    387.9029   6.2511384e-01   1.7329688e+00  -1.5052099e+00     2.022     0.688  26.82  26.82  +0.00  +0.00  +0.00
        18     200.1751     46.60648     507.4049      22.4278    159.5146    377.5320   4.0132723e+00   4.0262961e+00  -3.9800662e-01     0.512     0.487  44.06  44.06  +0.00  +0.00  +0.00
        19     465.6491     73.50224     507.3664      22.4278    150.6871    372.2954   1.2827759e+00   1.4323571e+00  -6.2058526e-01     0.981     0.772  38.22  38.22  +0.00  +0.00  +0.00
        20     400.5809     61.97989     507.3477      22.4278    139.7624    365.4327   1.0761799e+00   4.3063884e+00  -1.0007781e+00     1.000     0.478   8.61   8.61  +0.00  +0.00  +0.00
        21     202.2348     56.38993     507.1942      22.4278     88.1577    360.8475   2.2938926e+00   2.4585729e+00   1.3426809e+00     0.767     0.572 -41.50 -41.50  +0.00  +0.00  +0.00
        22     254.8461     56.76189     507.3488      22.4278    120.9763    354.4836   1.5428358e+00   4.0043826e+00   2.5426367e-02     0.805     0.500  -0.30  -0.30  +0.00  +0.00  +0.00
        23     180.0682     46.43359     507.3192      22.4278     97.9988    341.7485   2.1406527e+00   5.3120570e+00   7.0158010e-03     0.683     0.434  -0.06  -0.06  +0.00  +0.00  +0.00
        24      966.664     111.0967     507.3208      22.4278     88.4312    335.6531   5.3331083e-01   2.5367520e+00  -3.0790579e-01     1.385     0.626   4.37   4.37  +0.00  +0.00  +0.00
        25     745.6422     105.6392     507.3487      22.4278     63.2797    321.2891   1.0583199e+00   1.3693260e+00   1.8787758e-01     0.984     0.847 -15.57 -15.57  +0.00  +0.00  +0.00
        26     194.7915     46.56025     507.3017      22.4278     49.5380    313.4941   4.0245161e+00   4.0017986e+00  -1.4182222e-01     0.504     0.495  49.55  49.55  +0.00  +0.00  +0.00
        27     449.4128     73.41383     507.4232      22.4278     42.2619    309.8860   1.3562038e+00   1.9120998e+00  -1.9153042e+00     1.253     0.616  36.91  36.91  +0.00  +0.00  +0.00
        28     533.7505     77.20147     507.7964      22.4278     26.4687    300.0300   1.5981002e+00   2.2145853e+00  -1.5951381e+00     0.975     0.602  34.43  34.43  +0.00  +0.00  +0.00
        29      218.274     51.86183     507.3762      22.4278    352.7817    154.3831   2.0747237e+00   4.6723223e+00   1.9132324e+00     0.754     0.448 -18.19 -18.19  +0.00  +0.00  +0.00
        30      1235.22     116.4617     508.5429      22.4278     42.0081    137.5192   5.2243960e-01   9.2670435e-01  -8.5961115e-01     2.002     0.913  32.41  32.41  +0.00  +0.00  +0.00
        31     176.5195     46.40302     507.8642      22.4278    193.0067    137.2624   2.0566671e+00   5.1668081e+00   3.7214074e-02     0.697     0.440  -0.34  -0.34  +0.00  +0.00  +0.00
        32     177.8098     46.41413     507.8639      22.4278    210.4939    119.4903   4.0031762e+00   4.0040798e+00   2.0364836e-01     0.506     0.494 -44.87 -44.87  +0.00  +0.00  +0.00
        33     327.3027      76.1243     508.4804      22.4278    109.8849     88.6290   5.4608917e-01   2.5674214e+00   3.4246355e-01     1.371     0.622  -4.81  -4.81  +0.00  +0.00  +0.00
        34     246.3743     60.97657     508.5876      22.4278     82.0184     73.0078   2.4101760e+00   2.4418457e+00   2.4202044e+00     0.907     0.524 -44.63 -44.63  +0.00  +0.00  +0.00
        35     164.4186     46.29859     507.5932      22.4278    185.4764     37.5191   4.0149322e+00   4.0118389e+00   3.1101507e-01     0.509     0.490 -45.28 -45.28  +0.00  +0.00  +0.00
        36     956.7368     108.7728     508.6771      22.4278    463.7246     29.5806   5.5644733e-01   1.4084358e+00  -4.7334632e-01     1.421     0.825  14.53  14.53  +0.00  +0.00  +0.00
        37     220.7365     56.52102     508.9312      22.4278      3.0345     26.5155   1.5744160e+00   4.0068026e+00  -1.3605948e-01     0.797     0.499   1.60   1.60  +0.00  +0.00  +0.00
